* Sea-Bird SBE19plus  Data File:
* FileName = C:\Users\dcastle\Documents\CTD\SBE19plus_01908200_2024_03_12_0139.hex
* Software version 2.8.0.119
* Temperature SN = 8200
* Conductivity SN = 8200
* System UpLoad Time = Mar 12 2024 09:34:09
* <ApplicationData>
* <Seaterm232>
* <SoftwareVersion>2.8.0.119</SoftwareVersion>
* <BuildDate>07-Nov-2018</BuildDate>
* </Seaterm232>
* </ApplicationData>
* <InstrumentState>
* <HardwareData DeviceType='SBE19plus' SerialNumber='01908200'>
*
*    <Manufacturer>Sea-Bird Electronics, Inc.</Manufacturer>
*
*    <FirmwareVersion>3.1.8</FirmwareVersion>
*
*    <FirmwareDate>Mar  9 2016 16:22:29</FirmwareDate>
*
*    <CommandSetVersion>1.4</CommandSetVersion>
*
*    <PCBAssembly PCBSerialNum='262471' AssemblyNum='41054K'/>
*
*    <PCBAssembly PCBSerialNum='262475' AssemblyNum='41059E'/>
*
*    <PCBAssembly PCBSerialNum='262477' AssemblyNum='41606B'/>
*
*    <PCBAssembly PCBSerialNum='262473' AssemblyNum='41967C'/>
*
*    <MfgDate>15 Jun 2022</MfgDate>
*
*    <InternalSensors>
*
*       <Sensor id='Main Temperature'>
*
*          <type>temperature0</type>
*
*          <SerialNumber>01908200</SerialNumber>
*
*       </Sensor>
*
*       <Sensor id='Main Conductivity'>
*
*          <type>conductivity-0</type>
*
*          <SerialNumber>01908200</SerialNumber>
*
*       </Sensor>
*
*       <Sensor id='Main Pressure'>
*
*          <type>strain-0</type>
*
*          <SerialNumber>12287607</SerialNumber>
*
*       </Sensor>
*
*    </InternalSensors>
*
*    <ExternalSensors>
*
*       <Sensor id='volt 0'>
*
*          <type>PAR</type>
*
*          <SerialNumber>2214</SerialNumber>
*
*       </Sensor>
*
*       <Sensor id='volt 1'>
*
*          <type>not assigned</type>
*
*          <SerialNumber>not assigned</SerialNumber>
*
*       </Sensor>
*
*       <Sensor id='volt 2'>
*
*          <type>not assigned</type>
*
*          <SerialNumber>not assigned</SerialNumber>
*
*       </Sensor>
*
*       <Sensor id='volt 3'>
*
*          <type>not assigned</type>
*
*          <SerialNumber>not assigned</SerialNumber>
*
*       </Sensor>
*
*       <Sensor id='volt 4'>
*
*          <type>not assigned</type>
*
*          <SerialNumber>not assigned</SerialNumber>
*
*       </Sensor>
*
*       <Sensor id='volt 5'>
*
*          <type>not assigned</type>
*
*          <SerialNumber>not assigned</SerialNumber>
*
*       </Sensor>
*
*       <Sensor id='serial'>
*
*          <type>not assigned</type>
*
*          <SerialNumber>not assigned</SerialNumber>
*
*       </Sensor>
*
*    </ExternalSensors>
*
* </HardwareData>
* <StatusData DeviceType='SBE19plus' SerialNumber='01908200'>
*
*    <DateTime>2024-03-13T09:03:11</DateTime>
*
*    <LoggingState>not logging</LoggingState>
*
*    <EventSummary numEvents='0'/>
*
*    <Power>
*
*       <vMain>12.6</vMain>
*
*       <vLith>8.4</vLith>
*
*       <iMain>61.4</iMain>
*
*       <iPump>209.3</iPump>
*
*       <iExt01>16.3</iExt01>
*
*       <iExt2345>52.9</iExt2345>
*
*    </Power>
*
*    <MemorySummary>
*
*       <Bytes>1417069</Bytes>
*
*       <Samples>83357</Samples>
*
*       <SamplesFree>3787122</SamplesFree>
*
*       <SampleLength>17</SampleLength>
*
*       <Profiles>146</Profiles>
*
*    </MemorySummary>
*
* </StatusData>
* <ConfigurationData DeviceType='SBE19plus' SerialNumber='01908200'>
*
*    <ProfileMode>
*
*       <ScansToAverage>1</ScansToAverage>
*
*       <MinimumCondFreq>2645</MinimumCondFreq>
*
*       <PumpDelay>60</PumpDelay>
*
*       <AutoRun>no</AutoRun>
*
*       <IgnoreSwitch>no</IgnoreSwitch>
*
*    </ProfileMode>
*
*    <Battery>
*
*       <Type>alkaline</Type>
*
*       <CutOff>7.5</CutOff>
*
*    </Battery>
*
*    <DataChannels>
*
*       <ExtVolt0>yes</ExtVolt0>
*
*       <ExtVolt1>no</ExtVolt1>
*
*       <ExtVolt2>yes</ExtVolt2>
*
*       <ExtVolt3>yes</ExtVolt3>
*
*       <ExtVolt4>no</ExtVolt4>
*
*       <ExtVolt5>no</ExtVolt5>
*
*       <SBE38>no</SBE38>
*
*       <WETLABS>no</WETLABS>
*
*       <OPTODE>no</OPTODE>
*
*       <SBE63>no</SBE63>
*
*       <SeaFET>no</SeaFET>
*
*       <GTD>no</GTD>
*
*    </DataChannels>
*
*    <EchoCharacters>yes</EchoCharacters>
*
*    <OutputExecutedTag>yes</OutputExecutedTag>
*
*    <OutputFormat>raw HEX</OutputFormat>
*
* </ConfigurationData>
* <CalibrationCoefficients DeviceType='SBE19plus' SerialNumber='01908200'>
*
*    <Calibration format='TEMP1' id='Main Temperature'>
*
*       <SerialNum>01908200</SerialNum>
*
*       <CalDate>01-Jul-22</CalDate>
*
*       <TA0>1.273074e-03</TA0>
*
*       <TA1>2.634339e-04</TA1>
*
*       <TA2>6.102413e-07</TA2>
*
*       <TA3>1.045053e-07</TA3>
*
*       <TOFFSET>0.000000e+00</TOFFSET>
*
*    </Calibration>
*
*    <Calibration format='WBCOND0' id='Main Conductivity'>
*
*       <SerialNum>01908200</SerialNum>
*
*       <CalDate>01-Jul-22</CalDate>
*
*       <G>-1.000954e+00</G>
*
*       <H>1.438363e-01</H>
*
*       <I>-2.457737e-04</I>
*
*       <J>4.045354e-05</J>
*
*       <CPCOR>-9.570000e-08</CPCOR>
*
*       <CTCOR>3.250000e-06</CTCOR>
*
*       <CSLOPE>1.000000e+00</CSLOPE>
*
*    </Calibration>
*
*    <Calibration format='STRAIN0' id='Main Pressure'>
*
*       <SerialNum>12287607</SerialNum>
*
*       <CalDate>20-Jun-22</CalDate>
*
*       <PA0>5.417929e-02</PA0>
*
*       <PA1>1.544327e-03</PA1>
*
*       <PA2>5.749058e-12</PA2>
*
*       <PTCA0>5.243616e+05</PTCA0>
*
*       <PTCA1>5.371927e+00</PTCA1>
*
*       <PTCA2>-1.739922e-01</PTCA2>
*
*       <PTCB0>2.506713e+01</PTCB0>
*
*       <PTCB1>-5.750000e-04</PTCB1>
*
*       <PTCB2>0.000000e+00</PTCB2>
*
*       <PTEMPA0>-6.303813e+01</PTEMPA0>
*
*       <PTEMPA1>5.003359e+01</PTEMPA1>
*
*       <PTEMPA2>-6.230146e-02</PTEMPA2>
*
*       <POFFSET>0.000000e+00</POFFSET>
*
*       <PRANGE>5.080000e+02</PRANGE>
*
*    </Calibration>
*
*    <Calibration format='VOLT0' id='Volt 0'>
*
*       <OFFSET>-4.688400e-02</OFFSET>
*
*       <SLOPE>1.251355e+00</SLOPE>
*
*    </Calibration>
*
*    <Calibration format='VOLT0' id='Volt 1'>
*
*       <OFFSET>-4.659100e-02</OFFSET>
*
*       <SLOPE>1.252580e+00</SLOPE>
*
*    </Calibration>
*
*    <Calibration format='VOLT0' id='Volt 2'>
*
*       <OFFSET>-4.627400e-02</OFFSET>
*
*       <SLOPE>1.252280e+00</SLOPE>
*
*    </Calibration>
*
*    <Calibration format='VOLT0' id='Volt 3'>
*
*       <OFFSET>-4.753100e-02</OFFSET>
*
*       <SLOPE>1.251494e+00</SLOPE>
*
*    </Calibration>
*
*    <Calibration format='VOLT0' id='Volt 4'>
*
*       <OFFSET>-4.641400e-02</OFFSET>
*
*       <SLOPE>1.250582e+00</SLOPE>
*
*    </Calibration>
*
*    <Calibration format='VOLT0' id='Volt 5'>
*
*       <OFFSET>-4.738800e-02</OFFSET>
*
*       <SLOPE>1.251858e+00</SLOPE>
*
*    </Calibration>
*
*    <Calibration format='FREQ0' id='external frequency channel'>
*
*       <EXTFREQSF>1.000018e+00</EXTFREQSF>
*
*    </Calibration>
*
* </CalibrationCoefficients>
* <EventCounters DeviceType='SBE19plus' SerialNumber='01908200'>
*
*    <EventSummary numEvents='0'/>
*
* </EventCounters></InstrumentState>
* <Headers>
*
* cast 139 09 Mar 2024 08:49:04 samples 76021 to 77551, avg = 1, stop = mag switch
*
# nquan = 11
# nvalues = 1291                                  
# units = specified
# name 0 = depFM: Depth [fresh water, m]
# name 1 = tv290C: Temperature [ITS-90, deg C]
# name 2 = tv268C: Temperature [IPTS-68, deg C]
# name 3 = specc: Specific Conductance [uS/cm]
# name 4 = c0uS/cm: Conductivity [uS/cm]
# name 5 = prdE: Pressure, Strain Gauge [psi]
# name 6 = oxsolMg/L: Oxygen Saturation, Garcia & Gordon [mg/l]
# name 7 = oxsatMg/L: Oxygen Saturation, Weiss [mg/l]
# name 8 = par/sat/log: PAR/Logarithmic, Satlantic
# name 9 = density00: Density [density, kg/m^3]
# name 10 = flag:  0.000e+00
# span 0 =     -0.553,     16.059                 
# span 1 =     9.8762,    19.5110                 
# span 2 =     9.8786,    19.5157                 
# span 3 =      3.529,    234.561                 
# span 4 =   3.101990, 163.644603                 
# span 5 =     -0.786,     22.841                 
# span 6 =    9.17878,   11.31743                 
# span 7 =    9.16289,   11.30636                 
# span 8 = 1.1258e-01, 2.6999e+03                 
# span 9 =   998.3312,   999.8741                 
# span 10 = 0.0000e+00, 0.0000e+00                
# interval = seconds: 0.25
# start_time = Mar 09 2024 08:49:04 [Instrument's time stamp, header]
# bad_flag = -9.990e-29
# <Sensors count="6" >
#   <sensor Channel="1" >
#     <!-- Count, Temperature -->
#     <TemperatureSensor SensorID="58" >
#       <SerialNumber>8200</SerialNumber>
#       <CalibrationDate>01-Jul-22</CalibrationDate>
#       <A0>1.27307364e-003</A0>
#       <A1>2.63433881e-004</A1>
#       <A2>6.10241346e-007</A2>
#       <A3>1.04505265e-007</A3>
#       <Slope>1.00000000</Slope>
#       <Offset>0.0000</Offset>
#     </TemperatureSensor>
#   </sensor>
#   <sensor Channel="2" >
#     <!-- Frequency 0, Conductivity -->
#     <ConductivitySensor SensorID="3" >
#       <SerialNumber>8200</SerialNumber>
#       <CalibrationDate>01-Jul-22</CalibrationDate>
#       <UseG_J>1</UseG_J>
#       <!-- Cell const and series R are applicable only for wide range sensors. -->
#       <SeriesR>0.0000</SeriesR>
#       <CellConst>2000.0000</CellConst>
#       <ConductivityType>0</ConductivityType>
#       <Coefficients equation="0" >
#         <A>0.00000000e+000</A>
#         <B>0.00000000e+000</B>
#         <C>0.00000000e+000</C>
#         <D>0.00000000e+000</D>
#         <M>0.0</M>
#         <CPcor>-9.57000000e-008</CPcor>
#       </Coefficients>
#       <Coefficients equation="1" >
#         <G>-1.00095430e+000</G>
#         <H>1.43836252e-001</H>
#         <I>-2.45773667e-004</I>
#         <J>4.04535414e-005</J>
#         <CPcor>-9.57000000e-008</CPcor>
#         <CTcor>3.2500e-006</CTcor>
#         <!-- WBOTC not applicable unless ConductivityType = 1. -->
#         <WBOTC>0.00000000e+000</WBOTC>
#       </Coefficients>
#       <Slope>1.00000000</Slope>
#       <Offset>0.00000</Offset>
#     </ConductivitySensor>
#   </sensor>
#   <sensor Channel="3" >
#     <!-- Count, Pressure, Strain Gauge -->
#     <PressureSensor SensorID="46" >
#       <SerialNumber>8200</SerialNumber>
#       <CalibrationDate>20-Jun-22</CalibrationDate>
#       <PA0>5.41792865e-002</PA0>
#       <PA1>1.54432654e-003</PA1>
#       <PA2>5.74905779e-012</PA2>
#       <PTEMPA0>-6.30381273e+001</PTEMPA0>
#       <PTEMPA1>5.00335947e+001</PTEMPA1>
#       <PTEMPA2>-6.23014614e-002</PTEMPA2>
#       <PTCA0>5.24361650e+005</PTCA0>
#       <PTCA1>5.37192737e+000</PTCA1>
#       <PTCA2>-1.73992204e-001</PTCA2>
#       <PTCB0>2.50671250e+001</PTCB0>
#       <PTCB1>-5.75000000e-004</PTCB1>
#       <PTCB2>0.00000000e+000</PTCB2>
#       <Offset>0.000000</Offset>
#     </PressureSensor>
#   </sensor>
#   <sensor Channel="4" >
#     <!-- A/D voltage 0, PAR/Logarithmic, Satlantic -->
#     <PARLog_SatlanticSensor SensorID="76" >
#       <SerialNumber>2214</SerialNumber>
#       <CalibrationDate>5/20/22</CalibrationDate>
#       <a0>9.9290e-001</a0>
#       <a1>8.0312e-001</a1>
#       <Im>1.3589e+000</Im>
#       <Multiplier>1.0000e+000</Multiplier>
#     </PARLog_SatlanticSensor>
#   </sensor>
#   <sensor Channel="5" >
#     <!-- A/D voltage 1, Free -->
#   </sensor>
#   <sensor Channel="6" >
#     <!-- A/D voltage 2, Free -->
#   </sensor>
# </Sensors>
# datcnv_date = Jun 05 2024 16:06:10, 7.26.7.129 [datcnv_vars = 10]
# datcnv_in = C:\Users\ir64\OneDrive - The University of Waikato\Documents\Sampling\CTD casts\2024.03 CTD casts\2024.03 HEX files\2024.03.08 first sampling\2024.03.09 Okaro 1.1 139.hex C:\Users\ir64\OneDrive - The University of Waikato\Documents\Sampling\CTD casts\2024.03 CTD casts\2024.03 HEX files\2024.03.08 first sampling\CTD#3 for cast 139-146.xmlcon
# datcnv_skipover = 0
# file_type = ascii
*END*
     -0.549    17.2843    17.2885     13.434  11.362106     -0.780    9.60727    9.59301 1.3557e+02   998.7336  0.000e+00
     -0.546    17.2847    17.2888     13.364  11.302882     -0.777    9.60720    9.59295 1.2931e+02   998.7335  0.000e+00
     -0.548    17.2852    17.2893     13.434  11.362106     -0.779    9.60710    9.59284 1.2173e+02   998.7334  0.000e+00
     -0.546    17.2856    17.2898     13.434  11.362106     -0.777    9.60701    9.59276 1.0955e+02   998.7334  0.000e+00
     -0.548    17.2861    17.2903     13.503  11.421331     -0.779    9.60691    9.59265 1.0742e+02   998.7333  0.000e+00
     -0.550    17.2865    17.2907     13.433  11.362106     -0.782    9.60683    9.59257 1.0226e+02   998.7332  0.000e+00
     -0.548    17.2871    17.2913     13.363  11.302882     -0.779    9.60671    9.59245 1.0246e+02   998.7331  0.000e+00
     -0.550    17.2871    17.2913     13.363  11.302882     -0.782    9.60671    9.59245 1.0237e+02   998.7331  0.000e+00
     -0.549    17.2878    17.2920     13.223  11.184434     -0.780    9.60658    9.59232 1.0356e+02   998.7329  0.000e+00
     -0.548    17.2882    17.2924     13.293  11.243658     -0.779    9.60649    9.59223 1.0692e+02   998.7329  0.000e+00
     -0.549    17.2885    17.2926     13.223  11.184434     -0.780    9.60644    9.59218 1.0702e+02   998.7328  0.000e+00
     -0.548    17.2890    17.2932     13.223  11.184434     -0.779    9.60634    9.59208 1.3022e+02   998.7327  0.000e+00
     -0.549    17.2894    17.2936     13.152  11.125210     -0.780    9.60626    9.59200 1.2880e+02   998.7326  0.000e+00
     -0.549    17.2898    17.2939     13.117  11.095598     -0.780    9.60619    9.59193 1.3056e+02   998.7325  0.000e+00
     -0.551    17.2901    17.2943     13.222  11.184433     -0.783    9.60612    9.59186 1.3960e+02   998.7325  0.000e+00
     -0.550    17.2903    17.2944     13.292  11.243657     -0.782    9.60609    9.59183 1.3682e+02   998.7325  0.000e+00
     -0.549    17.2906    17.2948     13.117  11.095598     -0.780    9.60602    9.59176 1.3793e+02   998.7324  0.000e+00
     -0.549    17.2906    17.2948     13.117  11.095598     -0.780    9.60602    9.59176 1.3766e+02   998.7324  0.000e+00
     -0.551    17.2899    17.2941     13.292  11.243657     -0.783    9.60615    9.59189 1.2643e+02   998.7325  0.000e+00
     -0.549    17.2910    17.2952     13.572  11.480555     -0.780    9.60593    9.59167 1.1513e+02   998.7324  0.000e+00
     -0.551    17.2919    17.2960     14.027  11.865520     -0.783    9.60575    9.59149 1.1845e+02   998.7324  0.000e+00
     -0.550    17.2915    17.2956     15.322  12.961229     -0.782    9.60580    9.59154 1.1946e+02   998.7329  0.000e+00
     -0.551    17.2910    17.2951     16.443  13.908917     -0.783    9.60588    9.59162 1.1541e+02   998.7333  0.000e+00
     -0.551    17.2907    17.2949     17.003  14.382778     -0.783    9.60592    9.59166 1.1594e+02   998.7335  0.000e+00
     -0.551    17.2902    17.2943     17.984  15.212062     -0.783    9.60600    9.59174 1.1574e+02   998.7339  0.000e+00
     -0.549    17.2902    17.2943     18.649  15.774810     -0.780    9.60598    9.59172 1.1345e+02   998.7341  0.000e+00
     -0.552    17.2902    17.2943     18.334  15.508244     -0.785    9.60599    9.59173 1.1703e+02   998.7340  0.000e+00
     -0.551    17.2900    17.2942     18.334  15.508244     -0.783    9.60602    9.59176 1.1685e+02   998.7340  0.000e+00
     -0.551    17.2888    17.2930     18.054  15.271298     -0.783    9.60627    9.59201 1.0962e+02   998.7341  0.000e+00
     -0.551    17.2872    17.2914     18.265  15.449007     -0.783    9.60658    9.59233 1.0848e+02   998.7345  0.000e+00
     -0.549    17.2859    17.2900     18.511  15.656336     -0.780    9.60685    9.59259 1.0958e+02   998.7348  0.000e+00
     -0.550    17.2848    17.2889     19.562  16.544913     -0.782    9.60705    9.59279 1.0381e+02   998.7353  0.000e+00
     -0.551    17.2845    17.2887     19.107  16.159858     -0.783    9.60711    9.59285 1.2173e+02   998.7352  0.000e+00
     -0.553    17.2844    17.2886     21.663  18.322184     -0.786    9.60707    9.59281 1.2804e+02   998.7360  0.000e+00
     -0.550    17.2850    17.2892     25.901  21.906827     -0.782    9.60685    9.59259 1.3808e+02   998.7372  0.000e+00
     -0.552    17.2860    17.2901     25.235  21.343907     -0.785    9.60668    9.59242 1.4362e+02   998.7369  0.000e+00
     -0.550    17.2871    17.2913     23.938  20.247739     -0.782    9.60647    9.59221 1.5807e+02   998.7363  0.000e+00
     -0.549    17.2886    17.2927     22.046  18.648034     -0.780    9.60623    9.59197 1.8250e+02   998.7354  0.000e+00
     -0.482    17.3188    17.3230     69.148  58.530571     -0.686    9.59904    9.58476 1.8426e+02   998.7458  0.000e+00
     -0.366    17.7888    17.7931    135.034 115.570663     -0.521    9.50452    9.48990 1.7676e+02   998.6848  0.000e+00
     -0.251    18.3155    18.3199    118.933 103.042905     -0.357    9.40284    9.38784 1.9364e+02   998.5820  0.000e+00
     -0.143    18.7214    18.7259    107.932  94.388128     -0.204    9.32576    9.31046 1.9390e+02   998.5013  0.000e+00
     -0.058    19.0415    19.0460    104.177  91.771552     -0.082    9.26568    9.25014 2.2089e+02   998.4382  0.000e+00
      0.017    19.2198    19.2245    102.278  90.463389      0.025    9.23248    9.21681 1.8138e+02   998.4027  0.000e+00
      0.077    19.3174    19.3221    101.382  89.868793      0.110    9.21441    9.19866 1.8262e+02   998.3833  0.000e+00
      0.116    19.3575    19.3621    100.787  89.422867      0.165    9.20702    9.19124 1.5820e+02   998.3753  0.000e+00
      0.161    19.3671    19.3717    101.067  89.690412      0.229    9.20524    9.18946 1.1994e+02   998.3737  0.000e+00
      0.196    19.3726    19.3773    102.562  91.028201      0.278    9.20418    9.18839 1.5273e+02   998.3732  0.000e+00
      0.216    19.3828    19.3875    102.237  90.760633      0.307    9.20230    9.18651 9.4597e+01   998.3712  0.000e+00
      0.232    19.3723    19.3770    102.261  90.760636      0.331    9.20424    9.18845 5.8816e+02   998.3733  0.000e+00
      0.242    19.3274    19.3320    102.298  90.701191      0.345    9.21255    9.19680 1.2394e+02   998.3824  0.000e+00
      0.250    19.2769    19.2815    102.347  90.641748      0.355    9.22189    9.20618 1.4956e+02   998.3924  0.000e+00
      0.250    19.2411    19.2457    102.363  90.582300      0.355    9.22854    9.21285 1.6072e+02   998.3996  0.000e+00
      0.236    19.2152    19.2198    102.423  90.582308      0.335    9.23334    9.21767 2.3941e+02   998.4046  0.000e+00
      0.230    19.1989    19.2035    102.326  90.463397      0.328    9.23637    9.22071 1.0627e+02   998.4078  0.000e+00
      0.234    19.1965    19.2011    101.962  90.136383      0.332    9.23683    9.22118 2.4578e+02   998.4082  0.000e+00
      0.238    19.2150    19.2197    101.852  90.076921      0.338    9.23338    9.21772 1.7057e+02   998.4045  0.000e+00
      0.237    19.2298    19.2344    102.154  90.374201      0.337    9.23063    9.21495 2.7473e+02   998.4017  0.000e+00
      0.223    19.2467    19.2513    102.215  90.463383      0.317    9.22750    9.21181 5.9710e+02   998.3983  0.000e+00
      0.192    19.2359    19.2405    102.140  90.374199      0.274    9.22951    9.21382 2.2240e+02   998.4003  0.000e+00
      0.175    19.1914    19.1960    101.973  90.136384      0.249    9.23778    9.22213 1.6746e+02   998.4089  0.000e+00
      0.173    19.1710    19.1756    101.852  89.987749      0.246    9.24157    9.22593 2.5914e+02   998.4129  0.000e+00
      0.178    19.1781    19.1827    101.836  89.987747      0.253    9.24025    9.22461 2.3250e+02   998.4115  0.000e+00
      0.185    19.1797    19.1843    102.000  90.136387      0.263    9.23995    9.22431 2.0686e+02   998.4113  0.000e+00
      0.187    19.1983    19.2029    102.227  90.374210      0.266    9.23649    9.22083 2.6999e+03   998.4077  0.000e+00
      0.186    19.2112    19.2158    102.264  90.433664      0.264    9.23408    9.21842 1.3403e+02   998.4052  0.000e+00
      0.187    19.1557    19.1603    102.123  90.195851      0.266    9.24441    9.22878 6.0937e+02   998.4161  0.000e+00
      0.190    19.1164    19.1210    101.978  89.987765      0.270    9.25173    9.23614 1.9012e+02   998.4238  0.000e+00
      0.192    19.1055    19.1101    101.869  89.868856      0.273    9.25378    9.23819 1.6320e+02   998.4259  0.000e+00
      0.192    19.1006    19.1052    101.813  89.809401      0.273    9.25469    9.23910 2.2022e+02   998.4269  0.000e+00
      0.188    19.1087    19.1132    101.727  89.749943      0.267    9.25319    9.23760 5.3771e+02   998.4252  0.000e+00
      0.189    19.1216    19.1262    101.562  89.631029      0.269    9.25079    9.23519 1.8912e+02   998.4226  0.000e+00
      0.193    19.1422    19.1468    101.414  89.541840      0.275    9.24695    9.23134 1.9521e+02   998.4185  0.000e+00
      0.212    19.1812    19.1858    101.257  89.482374      0.301    9.23970    9.22405 3.9079e+02   998.4109  0.000e+00
      0.225    19.2134    19.2180    101.351  89.631002      0.320    9.23370    9.21803 1.7259e+02   998.4046  0.000e+00
      0.229    19.2276    19.2323    101.453  89.749909      0.326    9.23105    9.21538 2.1139e+02   998.4018  0.000e+00
      0.228    19.2417    19.2463    101.051  89.422902      0.324    9.22846    9.21277 1.6093e+02   998.3989  0.000e+00
      0.231    19.2554    19.2600    100.886  89.303989      0.329    9.22592    9.21022 2.3837e+02   998.3961  0.000e+00
      0.244    19.2655    19.2701    100.661  89.125624      0.348    9.22405    9.20835 3.9882e+02   998.3941  0.000e+00
      0.263    19.2747    19.2794    100.640  89.125622      0.374    9.22234    9.20662 1.8678e+02   998.3923  0.000e+00
      0.272    19.2639    19.2686    101.168  89.571533      0.386    9.22433    9.20862 2.0723e+02   998.3947  0.000e+00
      0.267    19.2598    19.2645    101.379  89.749900      0.380    9.22508    9.20938 3.4816e+02   998.3956  0.000e+00
      0.255    19.1901    19.1947    100.967  89.244554      0.363    9.23804    9.22239 2.4078e+02   998.4092  0.000e+00
      0.248    19.1496    19.1542    100.555  88.798665      0.352    9.24559    9.22997 3.5695e+02   998.4170  0.000e+00
      0.252    19.1594    19.1640    100.398  88.679757      0.358    9.24378    9.22815 2.0560e+02   998.4151  0.000e+00
      0.259    19.1933    19.1979    100.590  88.917558      0.368    9.23746    9.22180 4.7178e+02   998.4085  0.000e+00
      0.265    19.2170    19.2216    101.175  89.482364      0.377    9.23303    9.21736 6.8608e+02   998.4040  0.000e+00
      0.264    19.2549    19.2595    101.021  89.422898      0.375    9.22601    9.21032 2.2761e+02   998.3964  0.000e+00
      0.260    19.2109    19.2155    100.550  88.917553      0.369    9.23419    9.21853 7.2702e+02   998.4050  0.000e+00
      0.254    19.1939    19.1985    100.253  88.620295      0.362    9.23735    9.22169 3.2018e+02   998.4082  0.000e+00
      0.249    19.2095    19.2141    100.184  88.590564      0.354    9.23445    9.21879 2.1706e+02   998.4051  0.000e+00
      0.247    19.2201    19.2247    100.193  88.620287      0.351    9.23248    9.21681 7.5078e+02   998.4030  0.000e+00
      0.237    19.2266    19.2313    100.178  88.620285      0.337    9.23127    9.21559 4.5825e+02   998.4016  0.000e+00
      0.228    19.2402    19.2449    100.047  88.531103      0.324    9.22875    9.21306 1.0587e+03   998.3988  0.000e+00
      0.218    19.2578    19.2624     99.806  88.352743      0.311    9.22551    9.20981 3.2095e+02   998.3952  0.000e+00
      0.216    19.2879    19.2925     99.671  88.293283      0.307    9.21992    9.20420 3.7537e+02   998.3892  0.000e+00
      0.219    19.3109    19.3155     99.619  88.293276      0.312    9.21566    9.19992 3.7644e+02   998.3846  0.000e+00
      0.221    19.3112    19.3158     99.887  88.531083      0.314    9.21561    9.19987 3.9578e+02   998.3847  0.000e+00
      0.217    19.3177    19.3224    100.241  88.858069      0.309    9.21438    9.19864 1.7394e+03   998.3835  0.000e+00
      0.205    19.3358    19.3405    100.066  88.739158      0.292    9.21104    9.19528 3.7488e+02   998.3797  0.000e+00
      0.192    19.3480    19.3527     99.535  88.293265      0.273    9.20880    9.19303 5.1514e+02   998.3771  0.000e+00
      0.191    19.3519    19.3566     99.359  88.144637      0.272    9.20808    9.19231 4.2999e+02   998.3762  0.000e+00
      0.189    19.3576    19.3622     99.347  88.144635      0.269    9.20703    9.19126 4.6450e+02   998.3751  0.000e+00
      0.197    19.3550    19.3597     99.386  88.174361      0.280    9.20750    9.19173 4.4452e+02   998.3756  0.000e+00
      0.202    19.3350    19.3396     99.766  88.471624      0.287    9.21120    9.19544 4.3131e+02   998.3798  0.000e+00
      0.203    19.3329    19.3375    100.072  88.739159      0.289    9.21158    9.19582 4.2624e+02   998.3803  0.000e+00
      0.194    19.3296    19.3343     99.845  88.531077      0.277    9.21219    9.19644 3.5540e+02   998.3808  0.000e+00
      0.190    19.2868    19.2914     99.438  88.085205      0.270    9.22013    9.20441 3.8993e+02   998.3892  0.000e+00
      0.187    19.2730    19.2776     99.268  87.906857      0.266    9.22269    9.20698 5.6052e+02   998.3919  0.000e+00
      0.193    19.2785    19.2832     99.255  87.906856      0.275    9.22166    9.20595 5.0355e+02   998.3908  0.000e+00
      0.200    19.2765    19.2812     99.562  88.174384      0.284    9.22203    9.20631 5.4636e+02   998.3913  0.000e+00
      0.202    19.2762    19.2808    100.133  88.679723      0.287    9.22208    9.20637 5.9009e+02   998.3916  0.000e+00
      0.200    19.2868    19.2914    100.109  88.679720      0.284    9.22011    9.20439 7.8762e+02   998.3895  0.000e+00
      0.193    19.2532    19.2578     99.682  88.233842      0.275    9.22635    9.21065 3.8393e+02   998.3960  0.000e+00
      0.188    19.2281    19.2327     99.369  87.906870      0.267    9.23102    9.21534 3.4483e+02   998.4008  0.000e+00
      0.191    19.2310    19.2356     99.362  87.906870      0.272    9.23048    9.21480 3.3494e+02   998.4003  0.000e+00
      0.198    19.2388    19.2434     99.479  88.025768      0.281    9.22903    9.21335 7.2607e+02   998.3988  0.000e+00
      0.206    19.2386    19.2432     99.849  88.352748      0.294    9.22906    9.21337 6.2654e+02   998.3990  0.000e+00
      0.210    19.2530    19.2577    100.018  88.531099      0.298    9.22638    9.21068 4.3595e+02   998.3962  0.000e+00
      0.214    19.2580    19.2627    100.074  88.590550      0.304    9.22545    9.20975 1.2595e+03   998.3952  0.000e+00
      0.214    19.2223    19.2269     99.751  88.233851      0.304    9.23209    9.21642 5.2103e+02   998.4022  0.000e+00
      0.213    19.2003    19.2049     99.633  88.085230      0.303    9.23618    9.22053 2.8909e+02   998.4065  0.000e+00
      0.218    19.2053    19.2099     99.487  87.966327      0.311    9.23526    9.21960 4.6461e+02   998.4055  0.000e+00
      0.223    19.2169    19.2216     99.394  87.906874      0.317    9.23309    9.21742 3.1093e+02   998.4032  0.000e+00
      0.235    19.2196    19.2242     99.388  87.906873      0.334    9.23260    9.21693 2.9535e+02   998.4027  0.000e+00
      0.248    19.2180    19.2226     99.761  88.233852      0.352    9.23288    9.21721 3.2691e+02   998.4032  0.000e+00
      0.251    19.2142    19.2188    100.206  88.620289      0.357    9.23358    9.21791 3.5353e+02   998.4041  0.000e+00
      0.247    19.2143    19.2189    100.274  88.679741      0.351    9.23356    9.21789 4.1611e+02   998.4041  0.000e+00
      0.242    19.1800    19.1846     99.981  88.352765      0.345    9.23995    9.22430 5.6793e+02   998.4108  0.000e+00
      0.240    19.1471    19.1517     99.484  87.847444      0.341    9.24609    9.23047 3.3028e+02   998.4171  0.000e+00
      0.244    19.1420    19.1466     99.495  87.847445      0.348    9.24703    9.23142 2.6902e+02   998.4181  0.000e+00
      0.247    19.1378    19.1423     99.942  88.233875      0.351    9.24781    9.23220 4.0022e+02   998.4191  0.000e+00
      0.239    19.1327    19.1373    100.459  88.679765      0.340    9.24874    9.23313 5.5625e+02   998.4203  0.000e+00
      0.234    19.1246    19.1292    100.376  88.590589      0.332    9.25024    9.23464 3.0992e+02   998.4218  0.000e+00
      0.230    19.0731    19.0777     99.920  88.085266      0.328    9.25987    9.24431 2.7091e+02   998.4318  0.000e+00
      0.242    19.0528    19.0574     99.697  87.847471      0.345    9.26366    9.24812 3.0944e+02   998.4357  0.000e+00
      0.249    19.0550    19.0596    100.029  88.144722      0.354    9.26325    9.24770 2.5370e+02   998.4355  0.000e+00
      0.250    19.0654    19.0699    100.680  88.739237      0.355    9.26130    9.24574 4.7853e+02   998.4337  0.000e+00
      0.238    19.0651    19.0697    101.018  89.036502      0.338    9.26134    9.24578 3.2719e+02   998.4338  0.000e+00
      0.221    18.9834    18.9880    100.564  88.471725      0.314    9.27663    9.26113 4.1005e+02   998.4495  0.000e+00
      0.227    18.9271    18.9316    100.253  88.085308      0.323    9.28720    9.27174 4.0197e+02   998.4604  0.000e+00
      0.235    18.9504    18.9549    100.369  88.233929      0.334    9.28283    9.26736 2.4364e+02   998.4560  0.000e+00
      0.240    18.9921    18.9967    100.915  88.798710      0.341    9.27499    9.25948 8.8269e+02   998.4480  0.000e+00
      0.230    19.0208    19.0253    101.356  89.244603      0.328    9.26962    9.25410 2.9106e+02   998.4425  0.000e+00
      0.205    18.9271    18.9316    101.268  88.977088      0.292    9.28717    9.27172 4.8485e+02   998.4607  0.000e+00
      0.188    18.8397    18.8442    101.029  88.590670      0.267    9.30362    9.28823 7.3085e+02   998.4775  0.000e+00
      0.190    18.8334    18.8379    100.840  88.412316      0.270    9.30481    9.28942 4.2244e+02   998.4787  0.000e+00
      0.204    18.8847    18.8892    100.858  88.531205      0.290    9.29515    9.27973 6.9804e+02   998.4688  0.000e+00
      0.216    18.9501    18.9546    101.350  89.095989      0.307    9.28286    9.26739 3.8359e+02   998.4563  0.000e+00
      0.211    19.0036    19.0081    101.463  89.304062      0.300    9.27283    9.25732 2.6568e+02   998.4459  0.000e+00
      0.184    18.9196    18.9241    101.590  89.244632      0.261    9.28858    9.27313 6.5127e+02   998.4622  0.000e+00
      0.163    18.8290    18.8335    101.427  88.917663      0.232    9.30562    9.29024 5.0853e+02   998.4796  0.000e+00
      0.155    18.8018    18.8064    101.286  88.739312      0.221    9.31074    9.29538 2.5442e+02   998.4848  0.000e+00
      0.169    18.8267    18.8312    101.161  88.679852      0.241    9.30606    9.29068 4.9008e+02   998.4800  0.000e+00
      0.189    18.8946    18.8992    101.478  89.096004      0.269    9.29327    9.27784 2.4295e+02   998.4670  0.000e+00
      0.205    18.9779    18.9824    101.658  89.422978      0.292    9.27765    9.26215 9.3027e+02   998.4509  0.000e+00
      0.210    18.9632    18.9678    101.996  89.690530      0.298    9.28038    9.26490 5.2538e+02   998.4539  0.000e+00
      0.203    18.8655    18.8701    102.087  89.571648      0.289    9.29873    9.28332 2.2717e+02   998.4730  0.000e+00
      0.192    18.7986    18.8031    101.802  89.185213      0.273    9.31134    9.29598 3.0321e+02   998.4858  0.000e+00
      0.186    18.7788    18.7833    101.679  89.036584      0.264    9.31508    9.29974 2.3665e+02   998.4895  0.000e+00
      0.190    18.7827    18.7872    101.602  88.977130      0.270    9.31434    9.29900 3.7900e+02   998.4888  0.000e+00
      0.198    18.8121    18.8166    101.703  89.125755      0.281    9.30880    9.29343 2.3234e+02   998.4832  0.000e+00
      0.204    18.8524    18.8569    102.016  89.482470      0.290    9.30121    9.28581 4.0782e+02   998.4755  0.000e+00
      0.205    18.8829    18.8874    102.115  89.631098      0.292    9.29546    9.28004 2.6113e+02   998.4696  0.000e+00
      0.199    18.8594    18.8640    102.169  89.631105      0.283    9.29987    9.28447 2.4104e+02   998.4741  0.000e+00
      0.197    18.8116    18.8161    102.111  89.482481      0.280    9.30889    9.29352 2.2652e+02   998.4834  0.000e+00
      0.191    18.7952    18.7997    101.878  89.244668      0.272    9.31198    9.29662 2.2702e+02   998.4865  0.000e+00
      0.197    18.8003    18.8048    101.731  89.125759      0.280    9.31102    9.29566 2.4321e+02   998.4854  0.000e+00
      0.206    18.8208    18.8253    101.683  89.125753      0.294    9.30716    9.29179 2.1376e+02   998.4815  0.000e+00
      0.220    18.8441    18.8487    101.832  89.304108      0.314    9.30276    9.28737 2.8707e+02   998.4771  0.000e+00
      0.227    18.8624    18.8669    102.095  89.571649      0.323    9.29932    9.28391 1.6015e+02   998.4737  0.000e+00
      0.227    18.8623    18.8668    102.163  89.631105      0.323    9.29933    9.28393 1.8350e+02   998.4737  0.000e+00
      0.227    18.8388    18.8433    101.980  89.423019      0.323    9.30377    9.28838 1.6619e+02   998.4782  0.000e+00
      0.225    18.8212    18.8258    101.953  89.363570      0.320    9.30707    9.29170 1.5956e+02   998.4816  0.000e+00
      0.220    18.8140    18.8185    101.902  89.304117      0.314    9.30844    9.29307 1.5140e+02   998.4830  0.000e+00
      0.219    18.8144    18.8190    101.901  89.304117      0.312    9.30835    9.29298 2.1279e+02   998.4829  0.000e+00
      0.217    18.8202    18.8247    101.956  89.363570      0.309    9.30727    9.29190 1.8174e+02   998.4818  0.000e+00
      0.219    18.8270    18.8316    101.940  89.363568      0.312    9.30598    9.29060 3.3217e+02   998.4804  0.000e+00
      0.218    18.8304    18.8349    101.932  89.363567      0.311    9.30535    9.28997 1.5414e+02   998.4798  0.000e+00
      0.222    18.8274    18.8319    101.939  89.363568      0.315    9.30591    9.29053 2.0252e+02   998.4804  0.000e+00
      0.222    18.8214    18.8259    101.953  89.363569      0.315    9.30704    9.29166 1.4073e+02   998.4815  0.000e+00
      0.223    18.8161    18.8207    102.033  89.423026      0.317    9.30803    9.29266 1.3829e+02   998.4826  0.000e+00
      0.218    18.8133    18.8178    102.040  89.423026      0.311    9.30857    9.29320 1.8982e+02   998.4831  0.000e+00
      0.212    18.8121    18.8166    101.974  89.363572      0.301    9.30879    9.29342 1.3661e+02   998.4833  0.000e+00
      0.205    18.8110    18.8155    101.842  89.244664      0.292    9.30901    9.29364 1.3616e+02   998.4835  0.000e+00
      0.207    18.8126    18.8171    101.770  89.185209      0.295    9.30871    9.29334 1.3908e+02   998.4831  0.000e+00
      0.214    18.8219    18.8265    101.816  89.244661      0.304    9.30694    9.29156 1.1571e+02   998.4814  0.000e+00
      0.223    18.8353    18.8398    101.785  89.244657      0.317    9.30443    9.28904 1.2612e+02   998.4788  0.000e+00
      0.228    18.8422    18.8467    102.108  89.541928      0.324    9.30312    9.28773 1.1983e+02   998.4776  0.000e+00
      0.226    18.8390    18.8436    102.149  89.571656      0.321    9.30371    9.28832 1.3036e+02   998.4782  0.000e+00
      0.227    18.8119    18.8165    101.975  89.363572      0.323    9.30882    9.29345 1.2492e+02   998.4834  0.000e+00
      0.242    18.7909    18.7954    101.888  89.244670      0.345    9.31278    9.29743 1.4517e+02   998.4875  0.000e+00
      0.260    18.7918    18.7963    101.954  89.304124      0.369    9.31261    9.29726 1.4929e+02   998.4874  0.000e+00
      0.263    18.8079    18.8124    102.290  89.631121      0.374    9.30957    9.29421 1.2424e+02   998.4845  0.000e+00
      0.252    18.8120    18.8165    102.416  89.750030      0.358    9.30879    9.29343 1.8154e+02   998.4837  0.000e+00
      0.237    18.7733    18.7779    102.269  89.541948      0.337    9.31609    9.30076 1.6456e+02   998.4910  0.000e+00
      0.236    18.7498    18.7543    102.188  89.423045      0.335    9.32055    9.30522 1.3700e+02   998.4955  0.000e+00
      0.241    18.7556    18.7601    102.038  89.304134      0.343    9.31945    9.30413 2.7787e+02   998.4944  0.000e+00
      0.247    18.7802    18.7847    102.252  89.541946      0.351    9.31480    9.29945 1.3330e+02   998.4897  0.000e+00
      0.252    18.8094    18.8139    102.286  89.631120      0.358    9.30929    9.29392 1.9082e+02   998.4841  0.000e+00
      0.253    18.8231    18.8276    102.254  89.631116      0.360    9.30671    9.29133 1.6398e+02   998.4815  0.000e+00
      0.250    18.7973    18.8018    102.247  89.571669      0.355    9.31158    9.29622 1.9992e+02   998.4865  0.000e+00
      0.248    18.7673    18.7718    102.215  89.482495      0.352    9.31724    9.30191 1.6370e+02   998.4922  0.000e+00
      0.248    18.7630    18.7675    102.225  89.482496      0.352    9.31805    9.30272 1.2544e+02   998.4931  0.000e+00
      0.249    18.7762    18.7807    102.126  89.423037      0.354    9.31556    9.30022 3.8250e+02   998.4905  0.000e+00
      0.250    18.7897    18.7942    102.230  89.541943      0.355    9.31301    9.29766 2.0628e+02   998.4879  0.000e+00
      0.251    18.7972    18.8017    102.247  89.571669      0.357    9.31160    9.29624 1.6284e+02   998.4865  0.000e+00
      0.252    18.8027    18.8072    102.234  89.571667      0.358    9.31055    9.29519 1.2566e+02   998.4854  0.000e+00
      0.255    18.8064    18.8109    102.293  89.631121      0.363    9.30986    9.29450 2.5745e+02   998.4847  0.000e+00
      0.253    18.8078    18.8123    102.222  89.571665      0.360    9.30959    9.29423 1.8821e+02   998.4844  0.000e+00
      0.249    18.8075    18.8120    102.223  89.571666      0.354    9.30966    9.29429 1.3694e+02   998.4845  0.000e+00
      0.249    18.8081    18.8126    102.187  89.541938      0.354    9.30954    9.29418 2.4643e+02   998.4843  0.000e+00
      0.250    18.8101    18.8147    102.183  89.541937      0.355    9.30915    9.29379 1.9879e+02   998.4839  0.000e+00
      0.250    18.8121    18.8166    102.110  89.482482      0.355    9.30879    9.29342 1.3769e+02   998.4835  0.000e+00
      0.250    18.8127    18.8173    102.177  89.541936      0.355    9.30867    9.29330 1.8083e+02   998.4834  0.000e+00
      0.251    18.8121    18.8166    102.280  89.631119      0.357    9.30878    9.29341 1.2211e+02   998.4836  0.000e+00
      0.253    18.8112    18.8157    102.214  89.571664      0.360    9.30895    9.29358 1.4473e+02   998.4838  0.000e+00
      0.252    18.8101    18.8146    102.217  89.571665      0.358    9.30917    9.29380 1.2917e+02   998.4840  0.000e+00
      0.249    18.8096    18.8141    102.218  89.571665      0.354    9.30925    9.29389 1.1983e+02   998.4840  0.000e+00
      0.250    18.8098    18.8143    102.183  89.541937      0.355    9.30922    9.29386 1.6110e+02   998.4840  0.000e+00
      0.248    18.8103    18.8148    102.182  89.541937      0.352    9.30912    9.29375 1.3278e+02   998.4839  0.000e+00
      0.247    18.8103    18.8148    102.216  89.571665      0.351    9.30912    9.29375 1.9145e+02   998.4839  0.000e+00
      0.251    18.8095    18.8140    102.218  89.571665      0.357    9.30927    9.29391 1.1706e+02   998.4841  0.000e+00
      0.248    18.8092    18.8137    102.219  89.571665      0.352    9.30934    9.29397 1.7301e+02   998.4841  0.000e+00
      0.252    18.8086    18.8131    102.220  89.571665      0.358    9.30944    9.29407 1.3595e+02   998.4843  0.000e+00
      0.251    18.8080    18.8125    102.120  89.482483      0.357    9.30956    9.29420 1.6377e+02   998.4843  0.000e+00
      0.248    18.8073    18.8118    102.223  89.571666      0.352    9.30969    9.29433 2.0905e+02   998.4845  0.000e+00
      0.245    18.8068    18.8114    102.224  89.571666      0.349    9.30978    9.29441 1.2920e+02   998.4846  0.000e+00
      0.245    18.8067    18.8112    102.191  89.541938      0.349    9.30981    9.29445 1.7158e+02   998.4846  0.000e+00
      0.248    18.8062    18.8107    102.124  89.482483      0.352    9.30990    9.29453 1.3775e+02   998.4847  0.000e+00
      0.249    18.8068    18.8113    102.055  89.423029      0.354    9.30980    9.29443 1.6022e+02   998.4845  0.000e+00
      0.252    18.8077    18.8122    102.188  89.541938      0.358    9.30961    9.29424 2.3433e+02   998.4844  0.000e+00
      0.253    18.8076    18.8122    102.222  89.571666      0.360    9.30963    9.29426 1.3307e+02   998.4845  0.000e+00
      0.253    18.8074    18.8119    102.291  89.631121      0.360    9.30967    9.29431 1.9377e+02   998.4845  0.000e+00
      0.256    18.8071    18.8116    102.359  89.690576      0.365    9.30972    9.29436 1.9221e+02   998.4846  0.000e+00
      0.252    18.8068    18.8114    102.224  89.571666      0.358    9.30978    9.29441 1.6231e+02   998.4846  0.000e+00
      0.249    18.8065    18.8110    102.191  89.541938      0.354    9.30984    9.29448 2.1555e+02   998.4846  0.000e+00
      0.248    18.8059    18.8104    102.193  89.541938      0.352    9.30996    9.29460 2.1536e+02   998.4848  0.000e+00
      0.250    18.8057    18.8102    102.227  89.571666      0.355    9.31000    9.29463 2.3665e+02   998.4848  0.000e+00
      0.248    18.8055    18.8100    102.193  89.541939      0.352    9.31003    9.29467 2.0764e+02   998.4848  0.000e+00
      0.248    18.8051    18.8097    102.228  89.571666      0.352    9.31010    9.29473 1.7719e+02   998.4849  0.000e+00
      0.250    18.8044    18.8089    102.230  89.571666      0.355    9.31023    9.29487 2.0941e+02   998.4851  0.000e+00
      0.252    18.8039    18.8084    102.197  89.541939      0.358    9.31033    9.29497 2.5954e+02   998.4852  0.000e+00
      0.251    18.8037    18.8082    102.232  89.571667      0.357    9.31037    9.29500 2.8588e+02   998.4852  0.000e+00
      0.249    18.8034    18.8080    102.232  89.571667      0.354    9.31042    9.29506 1.6199e+02   998.4852  0.000e+00
      0.248    18.8026    18.8071    102.302  89.631122      0.352    9.31058    9.29522 2.2941e+02   998.4854  0.000e+00
      0.249    18.8022    18.8067    102.201  89.541940      0.354    9.31065    9.29529 2.5381e+02   998.4855  0.000e+00
      0.251    18.8024    18.8069    102.235  89.571667      0.357    9.31062    9.29526 2.2298e+02   998.4855  0.000e+00
      0.253    18.8030    18.8075    102.233  89.571667      0.360    9.31050    9.29514 3.8091e+02   998.4854  0.000e+00
      0.251    18.8030    18.8075    102.369  89.690577      0.357    9.31050    9.29514 2.4546e+02   998.4854  0.000e+00
      0.251    18.8031    18.8076    102.369  89.690577      0.357    9.31048    9.29512 2.5576e+02   998.4854  0.000e+00
      0.249    18.8031    18.8076    102.301  89.631122      0.354    9.31048    9.29512 5.0190e+02   998.4853  0.000e+00
      0.245    18.8029    18.8074    102.200  89.541939      0.349    9.31052    9.29516 4.1429e+02   998.4853  0.000e+00
      0.250    18.8027    18.8072    102.132  89.482484      0.355    9.31055    9.29519 3.8832e+02   998.4854  0.000e+00
      0.252    18.8034    18.8080    102.130  89.482484      0.358    9.31042    9.29506 3.2963e+02   998.4852  0.000e+00
      0.253    18.8051    18.8096    102.194  89.541939      0.360    9.31011    9.29475 2.5221e+02   998.4849  0.000e+00
      0.247    18.8054    18.8099    102.499  89.809488      0.351    9.31004    9.29468 6.0195e+02   998.4850  0.000e+00
      0.235    18.8043    18.8088    102.366  89.690577      0.334    9.31026    9.29490 6.9712e+02   998.4851  0.000e+00
      0.227    18.7954    18.7999    102.217  89.541941      0.323    9.31193    9.29658 5.0157e+02   998.4867  0.000e+00
      0.230    18.7930    18.7975    102.155  89.482487      0.328    9.31239    9.29704 4.6450e+02   998.4872  0.000e+00
      0.238    18.7989    18.8034    102.141  89.482485      0.338    9.31128    9.29592 4.0987e+02   998.4860  0.000e+00
      0.237    18.8118    18.8164    102.484  89.809486      0.337    9.30883    9.29346 6.5513e+02   998.4837  0.000e+00
      0.234    18.8176    18.8221    102.538  89.868940      0.332    9.30775    9.29237 2.2046e+02   998.4826  0.000e+00
      0.232    18.8076    18.8121    102.358  89.690576      0.331    9.30964    9.29427 7.0048e+02   998.4844  0.000e+00
      0.234    18.8003    18.8048    102.307  89.631123      0.332    9.31100    9.29565 6.8248e+02   998.4858  0.000e+00
      0.237    18.8049    18.8094    102.297  89.631121      0.337    9.31015    9.29478 3.9795e+02   998.4849  0.000e+00
      0.239    18.8123    18.8168    102.347  89.690575      0.340    9.30875    9.29338 3.5672e+02   998.4835  0.000e+00
      0.237    18.8135    18.8181    102.412  89.750030      0.337    9.30851    9.29314 1.1914e+03   998.4833  0.000e+00
      0.231    18.8163    18.8208    102.474  89.809485      0.329    9.30798    9.29261 7.3743e+02   998.4828  0.000e+00
      0.226    18.8228    18.8273    102.391  89.750027      0.321    9.30677    9.29140 3.9267e+02   998.4815  0.000e+00
      0.223    18.8218    18.8263    102.325  89.690572      0.317    9.30696    9.29158 1.3740e+03   998.4816  0.000e+00
      0.225    18.8231    18.8276    102.254  89.631116      0.320    9.30671    9.29133 3.6230e+02   998.4813  0.000e+00
      0.225    18.8224    18.8269    102.188  89.571661      0.320    9.30685    9.29147 3.8840e+02   998.4815  0.000e+00
      0.229    18.8194    18.8239    102.263  89.631117      0.326    9.30742    9.29204 2.2563e+02   998.4821  0.000e+00
      0.230    18.8163    18.8208    102.338  89.690573      0.328    9.30799    9.29262 3.2576e+02   998.4827  0.000e+00
      0.238    18.8162    18.8207    102.406  89.750029      0.338    9.30800    9.29263 1.5049e+03   998.4828  0.000e+00
      0.245    18.8173    18.8218    102.471  89.809485      0.349    9.30780    9.29243 1.3305e+03   998.4826  0.000e+00
      0.243    18.8177    18.8223    102.470  89.809484      0.346    9.30771    9.29234 3.6951e+02   998.4825  0.000e+00
      0.240    18.8189    18.8234    102.162  89.541935      0.341    9.30750    9.29213 3.6199e+02   998.4822  0.000e+00
      0.236    18.8610    18.8656    100.268  87.966426      0.335    9.29961    9.28421 4.2989e+02   998.4733  0.000e+00
      0.232    19.0882    19.0928     99.617  87.847461      0.331    9.25706    9.24149 3.9638e+02   998.4287  0.000e+00
      0.235    19.2672    19.2718     99.281  87.906860      0.334    9.22377    9.20806 3.7259e+02   998.3932  0.000e+00
      0.236    19.3578    19.3624     99.145  87.966284      0.335    9.20701    9.19123 4.2271e+02   998.3752  0.000e+00
      0.239    19.3919    19.3966     99.002  87.906824      0.340    9.20070    9.18490 3.4695e+02   998.3683  0.000e+00
      0.241    19.4042    19.4088     98.908  87.847370      0.343    9.19844    9.18263 2.7227e+02   998.3659  0.000e+00
      0.239    19.4114    19.4161     98.958  87.906818      0.340    9.19710    9.18128 1.1050e+03   998.3644  0.000e+00
      0.235    19.4162    19.4209     98.814  87.787917      0.334    9.19623    9.18041 2.5840e+02   998.3634  0.000e+00
      0.232    19.4137    19.4184     98.819  87.787918      0.331    9.19668    9.18086 3.3840e+02   998.3639  0.000e+00
      0.236    19.4118    19.4165     98.891  87.847368      0.335    9.19703    9.18122 3.3707e+02   998.3643  0.000e+00
      0.237    19.4059    19.4105     98.837  87.787920      0.337    9.19813    9.18232 6.7876e+02   998.3655  0.000e+00
      0.237    19.3911    19.3958     98.803  87.728475      0.337    9.20085    9.18505 5.9203e+02   998.3684  0.000e+00
      0.238    19.3864    19.3910     98.813  87.728476      0.338    9.20173    9.18593 1.5087e+02   998.3694  0.000e+00
      0.240    19.3855    19.3901     98.882  87.787926      0.341    9.20190    9.18610 1.4225e+02   998.3696  0.000e+00
      0.245    19.3748    19.3794     98.839  87.728479      0.349    9.20387    9.18808 1.3742e+02   998.3717  0.000e+00
      0.247    19.3663    19.3710     98.925  87.787931      0.351    9.20543    9.18965 1.3664e+02   998.3734  0.000e+00
      0.240    19.3650    19.3697     98.827  87.698757      0.341    9.20567    9.18989 1.3685e+02   998.3736  0.000e+00
      0.241    19.3671    19.3718     98.823  87.698757      0.343    9.20528    9.18950 1.3436e+02   998.3732  0.000e+00
      0.247    19.3691    19.3737     98.818  87.698756      0.351    9.20493    9.18914 1.3920e+02   998.3729  0.000e+00
      0.245    19.3696    19.3742     98.918  87.787931      0.349    9.20482    9.18904 1.2232e+02   998.3728  0.000e+00
      0.247    19.3636    19.3682     98.764  87.639308      0.351    9.20594    9.19016 1.2566e+02   998.3739  0.000e+00
      0.243    19.3560    19.3607     98.847  87.698760      0.346    9.20733    9.19156 1.3397e+02   998.3755  0.000e+00
      0.241    19.3520    19.3567     98.789  87.639312      0.343    9.20807    9.19230 1.3076e+02   998.3762  0.000e+00
      0.241    19.3481    19.3528     98.865  87.698762      0.343    9.20880    9.19303 1.2920e+02   998.3770  0.000e+00
      0.242    19.3432    19.3478     98.809  87.639314      0.345    9.20971    9.19394 1.2824e+02   998.3780  0.000e+00
      0.243    19.3423    19.3469     98.878  87.698764      0.346    9.20987    9.19411 1.1729e+02   998.3782  0.000e+00
      0.244    19.3417    19.3464     98.812  87.639315      0.348    9.20998    9.19421 1.2715e+02   998.3783  0.000e+00
      0.245    19.3413    19.3459     98.813  87.639315      0.349    9.21006    9.19430 1.1991e+02   998.3784  0.000e+00
      0.242    19.3405    19.3451     98.748  87.579866      0.345    9.21021    9.19445 1.3527e+02   998.3785  0.000e+00
      0.241    19.3386    19.3432     98.819  87.639315      0.343    9.21057    9.19480 1.1655e+02   998.3789  0.000e+00
      0.245    19.3369    19.3416     98.823  87.639316      0.349    9.21087    9.19511 1.3010e+02   998.3793  0.000e+00
      0.245    19.3368    19.3415     98.823  87.639316      0.349    9.21088    9.19513 1.1093e+02   998.3793  0.000e+00
      0.247    19.3365    19.3412     98.757  87.579867      0.351    9.21094    9.19518 1.3778e+02   998.3793  0.000e+00
      0.243    19.3356    19.3403     98.893  87.698766      0.346    9.21110    9.19534 1.2054e+02   998.3795  0.000e+00
      0.244    19.3308    19.3355     98.837  87.639318      0.348    9.21200    9.19624 1.2648e+02   998.3805  0.000e+00
      0.244    19.3269    19.3315     98.778  87.579870      0.348    9.21272    9.19697 1.2139e+02   998.3812  0.000e+00
      0.245    19.3230    19.3276     98.787  87.579871      0.349    9.21344    9.19770 1.2323e+02   998.3820  0.000e+00
      0.248    19.3218    19.3264     98.790  87.579871      0.352    9.21366    9.19791 1.2369e+02   998.3823  0.000e+00
      0.245    19.3224    19.3270     98.788  87.579871      0.349    9.21356    9.19781 1.2128e+02   998.3822  0.000e+00
      0.245    19.3220    19.3266     98.923  87.698770      0.349    9.21363    9.19788 1.2793e+02   998.3823  0.000e+00
      0.240    19.3212    19.3258     98.791  87.579871      0.341    9.21378    9.19803 1.2886e+02   998.3824  0.000e+00
      0.242    19.3202    19.3248     98.726  87.520422      0.345    9.21397    9.19822 1.2574e+02   998.3826  0.000e+00
      0.242    19.3174    19.3220     98.867  87.639322      0.345    9.21449    9.19874 1.2807e+02   998.3832  0.000e+00
      0.245    19.3142    19.3188     98.807  87.579873      0.349    9.21508    9.19933 1.1693e+02   998.3838  0.000e+00
      0.248    19.3132    19.3178     98.809  87.579874      0.352    9.21526    9.19952 1.2229e+02   998.3840  0.000e+00
      0.245    19.3127    19.3174     98.810  87.579874      0.349    9.21535    9.19960 1.2163e+02   998.3841  0.000e+00
      0.245    19.3121    19.3167     98.878  87.639323      0.349    9.21546    9.19972 1.2835e+02   998.3842  0.000e+00
      0.243    19.3113    19.3159     98.813  87.579874      0.346    9.21562    9.19987 1.2889e+02   998.3844  0.000e+00
      0.244    19.3083    19.3129     98.753  87.520426      0.348    9.21617    9.20043 1.2462e+02   998.3849  0.000e+00
      0.245    19.3041    19.3087     98.896  87.639325      0.349    9.21694    9.20121 1.2110e+02   998.3858  0.000e+00
      0.248    19.3025    19.3072     98.900  87.639326      0.352    9.21723    9.20150 1.1855e+02   998.3862  0.000e+00
      0.247    19.2856    19.2903     98.870  87.579881      0.351    9.22036    9.20464 1.2356e+02   998.3895  0.000e+00
      0.245    19.2786    19.2833     98.886  87.579883      0.349    9.22166    9.20594 1.2956e+02   998.3909  0.000e+00
      0.244    19.2786    19.2833     99.020  87.698782      0.348    9.22165    9.20594 1.2690e+02   998.3909  0.000e+00
      0.247    19.2814    19.2860     98.947  87.639332      0.351    9.22115    9.20543 1.2593e+02   998.3904  0.000e+00
      0.249    19.2796    19.2843     98.951  87.639332      0.354    9.22147    9.20575 1.2560e+02   998.3907  0.000e+00
      0.245    19.2774    19.2820     98.956  87.639333      0.349    9.22189    9.20618 1.3289e+02   998.3912  0.000e+00
      0.244    19.2766    19.2813     98.958  87.639333      0.348    9.22203    9.20631 1.2535e+02   998.3913  0.000e+00
      0.245    19.2775    19.2822     98.888  87.579884      0.349    9.22186    9.20614 1.2593e+02   998.3911  0.000e+00
      0.250    19.2769    19.2815     99.024  87.698783      0.355    9.22197    9.20626 1.2001e+02   998.3913  0.000e+00
      0.256    19.2807    19.2854     98.948  87.639332      0.365    9.22127    9.20555 1.2782e+02   998.3905  0.000e+00
      0.261    19.2794    19.2840     98.951  87.639333      0.371    9.22152    9.20580 1.2939e+02   998.3908  0.000e+00
      0.262    19.2782    19.2828     98.954  87.639333      0.372    9.22174    9.20602 1.3278e+02   998.3911  0.000e+00
      0.255    19.2743    19.2789     99.030  87.698783      0.363    9.22246    9.20675 1.2574e+02   998.3918  0.000e+00
      0.248    19.2748    19.2794     98.895  87.579884      0.352    9.22236    9.20665 1.3539e+02   998.3917  0.000e+00
      0.247    19.2769    19.2815     98.890  87.579884      0.351    9.22198    9.20626 1.2872e+02   998.3912  0.000e+00
      0.251    19.2747    19.2794     99.063  87.728508      0.357    9.22238    9.20666 1.3847e+02   998.3917  0.000e+00
      0.256    19.2612    19.2658     99.059  87.698787      0.365    9.22488    9.20918 1.2934e+02   998.3945  0.000e+00
      0.257    19.2451    19.2497     99.028  87.639342      0.366    9.22788    9.21219 1.4489e+02   998.3977  0.000e+00
      0.254    19.2417    19.2463     99.103  87.698793      0.362    9.22850    9.21281 1.3474e+02   998.3983  0.000e+00
      0.248    19.2440    19.2486     99.199  87.787966      0.352    9.22808    9.21239 1.5340e+02   998.3979  0.000e+00
      0.243    19.2388    19.2434     99.042  87.639344      0.346    9.22904    9.21336 1.4754e+02   998.3988  0.000e+00
      0.247    19.2377    19.2423     99.145  87.728518      0.351    9.22924    9.21356 1.4027e+02   998.3991  0.000e+00
      0.251    19.2428    19.2474     99.134  87.728517      0.357    9.22830    9.21261 1.3926e+02   998.3981  0.000e+00
      0.253    19.2404    19.2450     99.106  87.698793      0.360    9.22874    9.21305 1.3365e+02   998.3986  0.000e+00
      0.256    19.2381    19.2427     99.111  87.698794      0.365    9.22918    9.21349 1.4129e+02   998.3991  0.000e+00
      0.252    19.2410    19.2456     99.138  87.728518      0.358    9.22864    9.21295 1.3682e+02   998.3985  0.000e+00
      0.250    19.2431    19.2478     99.133  87.728517      0.355    9.22823    9.21254 1.5876e+02   998.3980  0.000e+00
      0.251    19.2470    19.2516     99.192  87.787966      0.357    9.22752    9.21183 1.4315e+02   998.3973  0.000e+00
      0.250    19.2498    19.2544     99.085  87.698790      0.355    9.22701    9.21131 1.6923e+02   998.3967  0.000e+00
      0.252    19.2521    19.2568     99.113  87.728514      0.358    9.22657    9.21087 1.5748e+02   998.3963  0.000e+00
      0.253    19.2529    19.2576     99.178  87.787964      0.360    9.22641    9.21072 1.5404e+02   998.3961  0.000e+00
      0.251    19.2549    19.2595     99.073  87.698789      0.357    9.22606    9.21036 1.6553e+02   998.3957  0.000e+00
      0.250    19.2581    19.2627     99.100  87.728513      0.355    9.22546    9.20976 1.4416e+02   998.3951  0.000e+00
      0.253    19.2603    19.2649     99.095  87.728512      0.360    9.22505    9.20935 1.5337e+02   998.3946  0.000e+00
      0.253    19.2559    19.2606     99.105  87.728513      0.360    9.22586    9.21016 1.6688e+02   998.3955  0.000e+00
      0.254    19.2507    19.2553     99.116  87.728515      0.362    9.22684    9.21114 1.8218e+02   998.3966  0.000e+00
      0.253    19.2485    19.2531     99.188  87.787965      0.360    9.22724    9.21155 1.4790e+02   998.3970  0.000e+00
      0.253    19.2459    19.2505     99.127  87.728516      0.360    9.22773    9.21204 1.4144e+02   998.3975  0.000e+00
      0.251    19.2372    19.2418     99.113  87.698794      0.357    9.22934    9.21366 1.9551e+02   998.3992  0.000e+00
      0.253    19.2350    19.2396     99.219  87.787969      0.360    9.22975    9.21406 2.1668e+02   998.3997  0.000e+00
      0.255    19.2352    19.2398     99.151  87.728519      0.363    9.22971    9.21403 1.8270e+02   998.3996  0.000e+00
      0.252    19.2295    19.2341     99.164  87.728521      0.358    9.23077    9.21510 2.2578e+02   998.4008  0.000e+00
      0.254    19.2284    19.2330     99.166  87.728521      0.362    9.23098    9.21530 2.1649e+02   998.4010  0.000e+00
      0.254    19.2324    19.2370     99.225  87.787970      0.362    9.23023    9.21455 4.8432e+02   998.4002  0.000e+00
      0.253    19.2334    19.2381     99.121  87.698795      0.360    9.23003    9.21435 1.7591e+02   998.4000  0.000e+00
      0.254    19.2330    19.2376     99.223  87.787970      0.362    9.23012    9.21443 2.3138e+02   998.4001  0.000e+00
      0.255    19.2334    19.2381     99.155  87.728520      0.363    9.23003    9.21435 1.6934e+02   998.4000  0.000e+00
      0.255    19.2379    19.2425     99.212  87.787968      0.363    9.22921    9.21352 1.9436e+02   998.3991  0.000e+00
      0.253    19.2394    19.2440     99.142  87.728518      0.360    9.22892    9.21324 4.0294e+02   998.3988  0.000e+00
      0.253    19.2388    19.2434     99.143  87.728518      0.360    9.22904    9.21335 2.2046e+02   998.3989  0.000e+00
      0.250    19.2385    19.2431     99.211  87.787968      0.355    9.22909    9.21340 2.5121e+02   998.3990  0.000e+00
      0.252    19.2392    19.2439     99.142  87.728518      0.358    9.22896    9.21327 2.2381e+02   998.3988  0.000e+00
      0.253    19.2405    19.2451     99.206  87.787967      0.360    9.22872    9.21303 2.6159e+02   998.3986  0.000e+00
      0.255    19.2411    19.2457     99.205  87.787967      0.363    9.22862    9.21293 4.2727e+02   998.3985  0.000e+00
      0.254    19.2405    19.2451     99.139  87.728518      0.362    9.22872    9.21303 1.7312e+02   998.3986  0.000e+00
      0.256    19.2405    19.2451     99.139  87.728518      0.365    9.22872    9.21303 2.4369e+02   998.3986  0.000e+00
      0.255    19.2392    19.2438     99.209  87.787968      0.363    9.22897    9.21329 2.0452e+02   998.3989  0.000e+00
      0.252    19.2363    19.2410     99.149  87.728519      0.358    9.22950    9.21381 3.2505e+02   998.3994  0.000e+00
      0.255    19.2307    19.2353     99.228  87.787970      0.363    9.23054    9.21486 1.9271e+02   998.4006  0.000e+00
      0.255    19.2285    19.2332     99.300  87.847421      0.363    9.23094    9.21526 2.3712e+02   998.4010  0.000e+00
      0.257    19.2256    19.2303     99.240  87.787972      0.366    9.23148    9.21580 2.4130e+02   998.4016  0.000e+00
      0.248    19.2198    19.2245     99.186  87.728524      0.352    9.23256    9.21689 3.2584e+02   998.4027  0.000e+00
      0.239    19.2184    19.2230     99.189  87.728524      0.340    9.23283    9.21716 1.8483e+02   998.4029  0.000e+00
      0.240    19.2195    19.2241     99.321  87.847423      0.341    9.23262    9.21695 2.3485e+02   998.4027  0.000e+00
      0.249    19.2217    19.2263     99.181  87.728523      0.354    9.23222    9.21655 3.4385e+02   998.4023  0.000e+00
      0.259    19.2212    19.2258     99.182  87.728523      0.368    9.23231    9.21663 2.8414e+02   998.4024  0.000e+00
      0.266    19.2220    19.2266     99.181  87.728523      0.379    9.23215    9.21648 1.8879e+02   998.4023  0.000e+00
      0.270    19.2237    19.2284     99.244  87.787972      0.385    9.23183    9.21616 2.7014e+02   998.4020  0.000e+00
      0.260    19.2247    19.2294     99.309  87.847422      0.369    9.23165    9.21597 2.1246e+02   998.4018  0.000e+00
      0.200    19.2204    19.2250     99.319  87.847423      0.284    9.23245    9.21678 1.5852e+02   998.4024  0.000e+00
      0.112    19.2090    19.2136     99.277  87.787975      0.159    9.23458    9.21891 1.3682e+02   998.4042  0.000e+00
      0.077    19.2065    19.2111     99.350  87.847426      0.110    9.23503    9.21937 1.8106e+02   998.4046  0.000e+00
      0.079    19.2145    19.2191     99.332  87.847423      0.113    9.23355    9.21788 1.7757e+02   998.4030  0.000e+00
      0.033    19.2033    19.2079     99.357  87.847426      0.046    9.23564    9.21998 1.0632e+02   998.4050  0.000e+00
     -0.043    19.1880    19.1927     99.391  87.847430     -0.062    9.23846    9.22281 1.2704e+02   998.4077  0.000e+00
     -0.093    19.2150    19.2197     99.398  87.906872     -0.133    9.23345    9.21778 1.4703e+02   998.4022  0.000e+00
     -0.144    19.2539    19.2586     99.311  87.906860     -0.206    9.22623    9.21053 8.2311e+01   998.3942  0.000e+00
     -0.241    19.2617    19.2663     99.293  87.906857     -0.343    9.22479    9.20909 7.2203e+01   998.3922  0.000e+00
     -0.338    19.2596    19.2642     99.365  87.966307     -0.481    9.22518    9.20948 6.0731e+01   998.3922  0.000e+00
     -0.383    19.2518    19.2564     99.315  87.906859     -0.545    9.22663    9.21093 7.6847e+01   998.3935  0.000e+00
     -0.357    19.2469    19.2515     99.394  87.966311     -0.508    9.22754    9.21184 6.9446e+01   998.3947  0.000e+00
     -0.394    19.2401    19.2447     99.342  87.906862     -0.561    9.22880    9.21311 3.0212e+01   998.3958  0.000e+00
     -0.488    19.2406    19.2452     99.273  87.847411     -0.694    9.22870    9.21301 2.8299e+01   998.3953  0.000e+00
     -0.537    19.2625    19.2671     99.157  87.787955     -0.763    9.22465    9.20894 2.7028e+01   998.3907  0.000e+00
     -0.541    19.2928    19.2974     99.223  87.906846     -0.769    9.21902    9.20330 3.3925e+01   998.3846  0.000e+00
     -0.544    19.3131    19.3177     99.245  87.966290     -0.774    9.21527    9.19953 4.8767e+01   998.3806  0.000e+00
     -0.546    19.3054    19.3101     99.128  87.847392     -0.777    9.21668    9.20095 3.3674e+01   998.3821  0.000e+00
     -0.550    19.3088    19.3134     99.120  87.847391     -0.782    9.21606    9.20032 4.4428e+01   998.3814  0.000e+00
     -0.542    19.3284    19.3330     99.077  87.847386     -0.771    9.21244    9.19669 6.5220e+01   998.3775  0.000e+00
     -0.482    19.3528    19.3575     99.290  88.085180     -0.686    9.20791    9.19214 1.9788e+02   998.3730  0.000e+00
     -0.424    19.3408    19.3455     99.250  88.025734     -0.603    9.21013    9.19437 2.2041e+02   998.3756  0.000e+00
     -0.403    19.2991    19.3037     99.276  87.966295     -0.573    9.21786    9.20213 2.3588e+02   998.3840  0.000e+00
     -0.408    19.2974    19.3020     99.012  87.728496     -0.581    9.21819    9.20246 2.3978e+02   998.3843  0.000e+00
     -0.444    19.3481    19.3528     99.033  87.847381     -0.632    9.20879    9.19302 2.4358e+02   998.3740  0.000e+00
     -0.508    19.3841    19.3887    100.158  88.917497     -0.723    9.20212    9.18632 2.4990e+02   998.3669  0.000e+00
     -0.550    19.3418    19.3465    105.549  93.614849     -0.782    9.20979    9.19403 2.2489e+02   998.3770  0.000e+00
     -0.550    19.2256    19.2303    111.575  98.699949     -0.782    9.23117    9.21550 2.1288e+02   998.4022  0.000e+00
     -0.550    19.0995    19.1041    115.502 101.882525     -0.782    9.25455    9.23897 2.2017e+02   998.4285  0.000e+00
     -0.549    19.0021    19.0067    116.941 102.923683     -0.780    9.27272    9.25721 2.2003e+02   998.4481  0.000e+00
     -0.550    18.9400    18.9446    119.137 104.708616     -0.782    9.28430    9.26884 2.3027e+02   998.4610  0.000e+00
     -0.549    18.9024    18.9070    120.391 105.720149     -0.780    9.29133    9.27589 2.2946e+02   998.4688  0.000e+00
     -0.549    18.8755    18.8800    120.601 105.839164     -0.780    9.29639    9.28098 2.2662e+02   998.4741  0.000e+00
     -0.549    18.8568    18.8614    120.008 105.273899     -0.780    9.29991    9.28451 2.2484e+02   998.4775  0.000e+00
     -0.549    18.8429    18.8474     97.768  85.737159     -0.780    9.30310    9.28771 2.2288e+02   998.4725  0.000e+00
     -0.550    18.8264    18.8309     92.211  80.833646     -0.782    9.30634    9.29096 2.2396e+02   998.4737  0.000e+00
     -0.549    18.8168    18.8213     99.589  87.282764     -0.780    9.30797    9.29260 2.2613e+02   998.4782  0.000e+00
     -0.550    18.8124    18.8169    114.019  99.919500     -0.782    9.30844    9.29307 2.2941e+02   998.4840  0.000e+00
     -0.545    18.8117    18.8162     99.228  86.955802     -0.776    9.30894    9.29357 2.3082e+02   998.4790  0.000e+00
     -0.549    18.8136    18.8182    110.826  97.123870     -0.780    9.30828    9.29291 2.3265e+02   998.4827  0.000e+00
     -0.545    18.8167    18.8212    112.651  98.729822     -0.776    9.30766    9.29229 2.3521e+02   998.4827  0.000e+00
     -0.549    18.8195    18.8241    112.542  98.640598     -0.780    9.30713    9.29175 2.3660e+02   998.4821  0.000e+00
     -0.547    18.8228    18.8274    112.058  98.224228     -0.779    9.30651    9.29114 2.3800e+02   998.4813  0.000e+00
     -0.547    18.8263    18.8308    112.762  98.848783     -0.779    9.30584    9.29046 2.3936e+02   998.4809  0.000e+00
     -0.549    18.8294    18.8339    113.636  99.622069     -0.780    9.30524    9.28986 2.4152e+02   998.4806  0.000e+00
     -0.547    18.8324    18.8369    114.714 100.573846     -0.779    9.30464    9.28926 2.4141e+02   998.4804  0.000e+00
     -0.549    18.8352    18.8397    115.995 101.704140     -0.780    9.30409    9.28870 2.4173e+02   998.4803  0.000e+00
     -0.549    18.8380    18.8425    115.988 101.704139     -0.780    9.30357    9.28818 2.4189e+02   998.4798  0.000e+00
     -0.547    18.8403    18.8448    113.811  99.800520     -0.779    9.30318    9.28780 2.4369e+02   998.4786  0.000e+00
     -0.551    18.8428    18.8473    104.073  91.266190     -0.783    9.30296    9.28757 2.4358e+02   998.4747  0.000e+00
     -0.549    18.8452    18.8497    102.779  90.136479     -0.780    9.30253    9.28714 2.4401e+02   998.4738  0.000e+00
     -0.549    18.8477    18.8522    111.181  97.510465     -0.780    9.30185    9.28646 2.4433e+02   998.4762  0.000e+00
     -0.547    18.8502    18.8547    107.275  94.090741     -0.779    9.30148    9.28608 2.4497e+02   998.4743  0.000e+00
     -0.549    18.8526    18.8572    104.931  92.039183     -0.780    9.30108    9.28568 2.4546e+02   998.4731  0.000e+00
     -0.546    18.8548    18.8593    102.756  90.136476     -0.777    9.30073    9.28533 2.4664e+02   998.4719  0.000e+00
     -0.547    18.8572    18.8617    103.971  91.206726     -0.779    9.30025    9.28485 2.4761e+02   998.4718  0.000e+00
     -0.551    18.8595    18.8641    116.067 101.823114     -0.783    9.29951    9.28410 2.4848e+02   998.4756  0.000e+00
     -0.547    18.8619    18.8665    115.552 101.376934     -0.779    9.29906    9.28366 2.4870e+02   998.4750  0.000e+00
     -0.547    18.8643    18.8688     90.743  79.615371     -0.779    9.29924    9.28384 2.4886e+02   998.4659  0.000e+00
     -0.549    18.8660    18.8705    107.237  94.090736     -0.780    9.29851    9.28311 2.5061e+02   998.4713  0.000e+00
     -0.547    18.8679    18.8725    116.044 101.823111     -0.779    9.29792    9.28251 2.5226e+02   998.4740  0.000e+00
     -0.549    18.8703    18.8748    111.191  97.569937     -0.780    9.29761    9.28219 2.5381e+02   998.4718  0.000e+00
     -0.550    18.8723    18.8769    102.275  89.750006     -0.782    9.29744    9.28203 2.5509e+02   998.4683  0.000e+00
     -0.547    18.8745    18.8790    108.300  95.042250     -0.779    9.29689    9.28147 2.5750e+02   998.4700  0.000e+00
     -0.549    18.8767    18.8813    112.327  98.581098     -0.780    9.29636    9.28095 2.5869e+02   998.4710  0.000e+00
     -0.551    18.8795    18.8840    114.658 100.633318     -0.783    9.29578    9.28037 2.6056e+02   998.4712  0.000e+00
     -0.550    18.8823    18.8868    112.042  98.343171     -0.782    9.29533    9.27991 2.6188e+02   998.4698  0.000e+00
     -0.549    18.8852    18.8898    111.357  97.748369     -0.780    9.29479    9.27937 2.6205e+02   998.4690  0.000e+00
     -0.549    18.8877    18.8922    115.044 100.990245     -0.780    9.29424    9.27882 2.6119e+02   998.4698  0.000e+00
     -0.547    18.8905    18.8951    108.735  95.458548     -0.779    9.29386    9.27843 2.6337e+02   998.4670  0.000e+00
     -0.549    18.8932    18.8977    104.461  91.712131     -0.780    9.29346    9.27803 2.6429e+02   998.4650  0.000e+00
     -0.549    18.8956    18.9002    111.500  97.897064     -0.780    9.29283    9.27740 2.6481e+02   998.4670  0.000e+00
     -0.551    18.8982    18.9028    114.033 100.127673     -0.783    9.29228    9.27685 2.6331e+02   998.4674  0.000e+00
     -0.547    18.9012    18.9057    107.930  94.774623     -0.779    9.29188    9.27644 2.6592e+02   998.4647  0.000e+00
     -0.549    18.9041    18.9087    106.839  93.823118     -0.780    9.29135    9.27591 2.6743e+02   998.4637  0.000e+00
     -0.549    18.9062    18.9107    115.943 101.823098     -0.780    9.29073    9.27529 2.6849e+02   998.4665  0.000e+00
     -0.550    18.9092    18.9137    114.581 100.633308     -0.782    9.29021    9.27477 2.6884e+02   998.4654  0.000e+00
     -0.550    18.9117    18.9162     95.313  83.716152     -0.782    9.29022    9.27478 2.6955e+02   998.4582  0.000e+00
     -0.550    18.9134    18.9179    112.369  98.700050     -0.782    9.28947    9.27403 2.6884e+02   998.4638  0.000e+00
     -0.549    18.9157    18.9203    116.494 102.328777     -0.780    9.28893    9.27349 2.6961e+02   998.4648  0.000e+00
     -0.550    18.9181    18.9227    109.208  95.934325     -0.782    9.28866    9.27321 2.7002e+02   998.4618  0.000e+00
     -0.550    18.9200    18.9246     98.036  86.123526     -0.782    9.28858    9.27314 2.7174e+02   998.4576  0.000e+00
     -0.548    18.9217    18.9263    108.962  95.726166     -0.779    9.28799    9.27254 2.7079e+02   998.4610  0.000e+00
     -0.549    18.9238    18.9283    108.382  95.220649     -0.780    9.28762    9.27217 2.7008e+02   998.4604  0.000e+00
     -0.549    18.9262    18.9308    107.801  94.715145     -0.780    9.28718    9.27173 2.6984e+02   998.4597  0.000e+00
     -0.550    18.9289    18.9334    108.640  95.458536     -0.782    9.28665    9.27120 2.7126e+02   998.4595  0.000e+00
     -0.549    18.9314    18.9360    106.130  93.258175     -0.780    9.28624    9.27079 2.7126e+02   998.4582  0.000e+00
     -0.549    18.9339    18.9385    104.026  91.414814     -0.780    9.28582    9.27037 2.7293e+02   998.4569  0.000e+00
     -0.549    18.9364    18.9410    108.926  95.726162     -0.780    9.28523    9.26977 2.7347e+02   998.4581  0.000e+00
     -0.547    18.9391    18.9437    106.517  93.614972     -0.779    9.28478    9.26932 2.7455e+02   998.4568  0.000e+00
     -0.550    18.9418    18.9464    103.838  91.266161     -0.782    9.28435    9.26888 2.7461e+02   998.4553  0.000e+00
     -0.550    18.9443    18.9488    109.346  96.112739     -0.782    9.28375    9.26829 2.7659e+02   998.4568  0.000e+00
     -0.550    18.9471    18.9517    109.102  95.904579     -0.782    9.28322    9.26775 2.7684e+02   998.4561  0.000e+00
     -0.550    18.9497    18.9543    108.825  95.666684     -0.782    9.28274    9.26727 2.7599e+02   998.4555  0.000e+00
     -0.549    18.9528    18.9573    108.885  95.726157     -0.780    9.28217    9.26669 2.7696e+02   998.4549  0.000e+00
     -0.547    18.9557    18.9602    102.960  90.522919     -0.779    9.28177    9.26630 2.7593e+02   998.4523  0.000e+00
     -0.549    18.9578    18.9624    103.868  91.325616     -0.780    9.28135    9.26587 2.7811e+02   998.4522  0.000e+00
     -0.547    18.9601    18.9647    109.374  96.172208     -0.779    9.28077    9.26529 2.7939e+02   998.4537  0.000e+00
     -0.549    18.9631    18.9677    110.179  96.885915     -0.780    9.28020    9.26472 2.7811e+02   998.4534  0.000e+00
     -0.550    18.9656    18.9702    108.482  95.399052     -0.782    9.27977    9.26428 2.7605e+02   998.4523  0.000e+00
     -0.547    18.9681    18.9727    100.159  88.085290     -0.779    9.27950    9.26402 2.7775e+02   998.4489  0.000e+00
     -0.550    18.9701    18.9747     68.946  60.637771     -0.782    9.27990    9.26441 2.7509e+02   998.4378  0.000e+00
     -0.549    18.9707    18.9752     86.267  75.871871     -0.780    9.27937    9.26389 2.7215e+02   998.4436  0.000e+00
     -0.549    18.9716    18.9762    109.143  95.993782     -0.780    9.27862    9.26313 2.6773e+02   998.4513  0.000e+00
     -0.547    18.9737    18.9783     81.060  71.297460     -0.779    9.27893    9.26344 2.6737e+02   998.4413  0.000e+00
     -0.550    18.9748    18.9793     67.218  59.123899     -0.782    9.27906    9.26358 2.6383e+02   998.4363  0.000e+00
     -0.549    18.9745    18.9791     96.090  84.518562     -0.780    9.27841    9.26292 2.6302e+02   998.4463  0.000e+00
     -0.549    18.9737    18.9783     73.092  64.289340     -0.780    9.27912    9.26364 2.6256e+02   998.4385  0.000e+00
     -0.549    18.9707    18.9752     74.954  65.922371     -0.780    9.27965    9.26417 2.6136e+02   998.4398  0.000e+00
     -0.549    18.9707    18.9752     88.800  78.100045     -0.780    9.27931    9.26383 2.6050e+02   998.4445  0.000e+00
     -0.550    18.9728    18.9774     70.967  62.418941     -0.782    9.27934    9.26386 2.6056e+02   998.4380  0.000e+00
     -0.547    18.9745    18.9791     66.543  58.530255     -0.779    9.27913    9.26364 2.5852e+02   998.4362  0.000e+00
     -0.547    18.9755    18.9801     65.968  58.025672     -0.779    9.27896    9.26347 2.5812e+02   998.4358  0.000e+00
     -0.547    18.9767    18.9812     78.860  69.367013     -0.779    9.27843    9.26294 2.5773e+02   998.4399  0.000e+00
     -0.550    18.9791    18.9837    103.919  91.414801     -0.782    9.27735    9.26186 2.5908e+02   998.4481  0.000e+00
     -0.550    18.9820    18.9865     68.860  60.578399     -0.782    9.27768    9.26218 2.6193e+02   998.4355  0.000e+00
     -0.549    18.9826    18.9872     65.080  57.253979     -0.780    9.27765    9.26216 2.6256e+02   998.4341  0.000e+00
     -0.550    18.9823    18.9869     68.522  60.281553     -0.782    9.27762    9.26212 2.6268e+02   998.4353  0.000e+00
     -0.546    18.9841    18.9887     89.989  79.169652     -0.777    9.27676    9.26126 2.6343e+02   998.4423  0.000e+00
     -0.549    18.9868    18.9914     68.414  60.192500     -0.780    9.27678    9.26128 2.6268e+02   998.4344  0.000e+00
     -0.549    18.9885    18.9931     65.375  57.521098     -0.780    9.27653    9.26103 2.6395e+02   998.4330  0.000e+00
     -0.549    18.9898    18.9944     69.286  60.964303     -0.780    9.27620    9.26070 2.6383e+02   998.4341  0.000e+00
     -0.547    18.9921    18.9966     79.777  70.198563     -0.779    9.27552    9.26002 2.6285e+02   998.4372  0.000e+00
     -0.550    18.9948    18.9993     73.563  64.734694     -0.782    9.27517    9.25967 2.5863e+02   998.4346  0.000e+00
     -0.547    18.9973    19.0018     68.566  60.340919     -0.779    9.27482    9.25931 2.5745e+02   998.4324  0.000e+00
     -0.550    18.9995    19.0041     66.101  58.174073     -0.782    9.27446    9.25895 2.5492e+02   998.4311  0.000e+00
     -0.547    19.0013    19.0059     94.613  83.270349     -0.779    9.27342    9.25792 2.5149e+02   998.4405  0.000e+00
     -0.549    19.0035    19.0080     77.158  67.911870     -0.780    9.27345    9.25794 2.4848e+02   998.4341  0.000e+00
     -0.547    19.0042    19.0088     64.846  57.075897     -0.779    9.27361    9.25810 2.4669e+02   998.4298  0.000e+00
     -0.550    19.0028    19.0073     65.084  57.283655     -0.782    9.27388    9.25837 2.3759e+02   998.4301  0.000e+00
     -0.547    19.0020    19.0066     61.949  54.523613     -0.779    9.27409    9.25858 2.4540e+02   998.4292  0.000e+00
     -0.549    18.9970    19.0016     60.506  53.247594     -0.780    9.27506    9.25956 2.3805e+02   998.4297  0.000e+00
     -0.547    19.0020    19.0065     70.718  62.240811     -0.779    9.27389    9.25838 2.2926e+02   998.4322  0.000e+00
     -0.547    19.0163    19.0209    118.559 104.381344     -0.779    9.27001    9.25449 2.3007e+02   998.4459  0.000e+00
     -0.550    19.0240    19.0286    121.207 106.731678     -0.782    9.26852    9.25299 2.3301e+02   998.4453  0.000e+00
     -0.547    19.0178    19.0224    121.292 106.791186     -0.779    9.26968    9.25416 2.3372e+02   998.4466  0.000e+00
     -0.550    18.9987    19.0033    121.277 106.731686     -0.782    9.27325    9.25774 2.3665e+02   998.4503  0.000e+00
     -0.549    18.9577    18.9623    121.525 106.850712     -0.780    9.28092    9.26545 2.2332e+02   998.4584  0.000e+00
     -0.549    18.9206    18.9251    121.764 106.969738     -0.780    9.28789    9.27244 2.2367e+02   998.4657  0.000e+00
     -0.547    18.9054    18.9099    100.539  88.293386     -0.779    9.29127    9.27583 2.2425e+02   998.4613  0.000e+00
     -0.547    18.8961    18.9006     84.755  74.416282     -0.779    9.29341    9.27798 2.1716e+02   998.4577  0.000e+00
     -0.550    18.8848    18.8893     82.172  72.129114     -0.782    9.29560    9.28018 2.1461e+02   998.4590  0.000e+00
     -0.550    18.8789    18.8834     81.675  71.683593     -0.782    9.29672    9.28130 2.1400e+02   998.4599  0.000e+00
     -0.550    18.8767    18.8813     81.442  71.475686     -0.782    9.29713    9.28172 2.1414e+02   998.4603  0.000e+00
     -0.549    18.8766    18.8812     79.784  70.020397     -0.780    9.29719    9.28177 2.1517e+02   998.4597  0.000e+00
     -0.547    18.8773    18.8818     72.238  63.398672     -0.779    9.29726    9.28184 1.8731e+02   998.4570  0.000e+00
     -0.547    18.8783    18.8829     70.714  62.062713     -0.779    9.29709    9.28167 2.0243e+02   998.4563  0.000e+00
     -0.549    18.8795    18.8840     69.900  61.350238     -0.780    9.29689    9.28147 2.0754e+02   998.4558  0.000e+00
     -0.549    18.8809    18.8855     69.323  60.845584     -0.780    9.29664    9.28122 2.0592e+02   998.4553  0.000e+00
     -0.547    18.8825    18.8870     68.813  60.400311     -0.779    9.29636    9.28094 1.9671e+02   998.4549  0.000e+00
     -0.549    18.8835    18.8881     68.237  59.895680     -0.780    9.29617    9.28075 1.9351e+02   998.4545  0.000e+00
     -0.551    18.8849    18.8894     67.863  59.569161     -0.783    9.29593    9.28051 1.9373e+02   998.4541  0.000e+00
     -0.550    18.8864    18.8909     67.624  59.361379     -0.782    9.29565    9.28023 2.0502e+02   998.4537  0.000e+00
     -0.549    18.8877    18.8923     67.351  59.123916     -0.780    9.29540    9.27998 2.0818e+02   998.4533  0.000e+00
     -0.550    18.8889    18.8934     67.214  59.005185     -0.782    9.29519    9.27976 2.0946e+02   998.4531  0.000e+00
     -0.550    18.8902    18.8948     67.111  58.916138     -0.782    9.29494    9.27951 2.0533e+02   998.4528  0.000e+00
     -0.549    18.8920    18.8966     66.973  58.797409     -0.780    9.29460    9.27918 2.0709e+02   998.4524  0.000e+00
     -0.550    18.8934    18.8979     66.971  58.797408     -0.782    9.29435    9.27892 2.1149e+02   998.4521  0.000e+00
     -0.547    18.8946    18.8992     66.969  58.797408     -0.779    9.29412    9.27869 2.2080e+02   998.4519  0.000e+00
     -0.549    18.8961    18.9006     68.657  60.281570     -0.780    9.29380    9.27838 2.1907e+02   998.4522  0.000e+00
     -0.547    18.8975    18.9020     69.500  61.023692     -0.779    9.29351    9.27808 2.1344e+02   998.4522  0.000e+00
     -0.549    18.8989    18.9034     40.509  35.569713     -0.780    9.29395    9.27852 2.2489e+02   998.4423  0.000e+00
     -0.546    18.9005    18.9050     26.061  22.884448     -0.777    9.29398    9.27855 2.3209e+02   998.4374  0.000e+00
     -0.550    18.9083    18.9128     17.590  15.448926     -0.782    9.29270    9.27726 2.5171e+02   998.4333  0.000e+00
     -0.551    18.9125    18.9170     13.374  11.747006     -0.783    9.29199    9.27655 2.4968e+02   998.4312  0.000e+00
     -0.549    18.9152    18.9197     10.980   9.644621     -0.780    9.29154    9.27609 2.3567e+02   998.4300  0.000e+00
     -0.550    18.9176    18.9221      9.294   8.164200     -0.782    9.29111    9.27567 2.1260e+02   998.4291  0.000e+00
     -0.547    18.9202    18.9247      8.215   7.216789     -0.779    9.29065    9.27520 2.1725e+02   998.4283  0.000e+00
     -0.547    18.9231    18.9276      7.473   6.565469     -0.779    9.29012    9.27467 2.1503e+02   998.4276  0.000e+00
     -0.549    18.9258    18.9303      6.900   6.062191     -0.780    9.28962    9.27417 2.1588e+02   998.4269  0.000e+00
     -0.551    18.9282    18.9327      6.461   5.677340     -0.783    9.28918    9.27373 2.3301e+02   998.4263  0.000e+00
     -0.550    18.9304    18.9350      6.158   5.410909     -0.782    9.28876    9.27331 2.4859e+02   998.4258  0.000e+00
     -0.549    18.9327    18.9372      5.888   5.174085     -0.780    9.28834    9.27289 2.5083e+02   998.4253  0.000e+00
     -0.549    18.9346    18.9392      5.787   5.085276     -0.780    9.28798    9.27252 2.5039e+02   998.4249  0.000e+00
     -0.550    18.9364    18.9409      5.517   4.848456     -0.782    9.28766    9.27220 2.5487e+02   998.4245  0.000e+00
     -0.550    18.9384    18.9430      5.382   4.730046     -0.782    9.28727    9.27182 2.5756e+02   998.4241  0.000e+00
     -0.550    18.9402    18.9448      5.281   4.641240     -0.782    9.28694    9.27148 2.5914e+02   998.4237  0.000e+00
     -0.549    18.9420    18.9466      5.146   4.522832     -0.780    9.28660    9.27114 2.5993e+02   998.4233  0.000e+00
     -0.550    18.9439    18.9484      4.944   4.345221     -0.782    9.28625    9.27079 2.6233e+02   998.4229  0.000e+00
     -0.549    18.9435    18.9481      4.843   4.256416     -0.780    9.28632    9.27086 2.6522e+02   998.4230  0.000e+00
     -0.546    18.9421    18.9466      4.843   4.256416     -0.777    9.28659    9.27113 2.6661e+02   998.4232  0.000e+00
     -0.547    18.9414    18.9459      4.708   4.138011     -0.779    9.28673    9.27127 2.6808e+02   998.4233  0.000e+00
     -0.549    18.9416    18.9461      4.641   4.078808     -0.780    9.28670    9.27124 2.6984e+02   998.4233  0.000e+00
     -0.549    18.9424    18.9469      4.573   4.019605     -0.780    9.28655    9.27108 2.7395e+02   998.4231  0.000e+00
     -0.549    18.9435    18.9481      4.472   3.930802     -0.780    9.28633    9.27087 2.7647e+02   998.4229  0.000e+00
     -0.549    18.9450    18.9495      4.472   3.930802     -0.780    9.28606    9.27060 2.7823e+02   998.4226  0.000e+00
     -0.547    18.9469    18.9514      4.404   3.871600     -0.779    9.28571    9.27024 2.8068e+02   998.4222  0.000e+00
     -0.551    18.9486    18.9531      4.337   3.812398     -0.783    9.28539    9.26992 2.8228e+02   998.4219  0.000e+00
     -0.547    18.9505    18.9551      4.269   3.753197     -0.779    9.28502    9.26955 2.8495e+02   998.4215  0.000e+00
     -0.550    18.9522    18.9567      4.202   3.693995     -0.782    9.28472    9.26925 2.8795e+02   998.4211  0.000e+00
     -0.549    18.9538    18.9583      4.134   3.634794     -0.780    9.28441    9.26894 2.8871e+02   998.4208  0.000e+00
     -0.550    18.9558    18.9604      4.067   3.575593     -0.782    9.28403    9.26855 2.9163e+02   998.4204  0.000e+00
     -0.551    18.9577    18.9623      4.067   3.575593     -0.783    9.28367    9.26820 2.9317e+02   998.4200  0.000e+00
     -0.549    18.9593    18.9639      4.033   3.545992     -0.780    9.28337    9.26790 2.9464e+02   998.4197  0.000e+00
     -0.549    18.9612    18.9658      4.033   3.545992     -0.780    9.28302    9.26754 2.9600e+02   998.4193  0.000e+00
     -0.551    18.9632    18.9678      3.965   3.486791     -0.783    9.28265    9.26717 2.9227e+02   998.4189  0.000e+00
     -0.549    18.9653    18.9698      3.965   3.486791     -0.780    9.28226    9.26678 2.9355e+02   998.4185  0.000e+00
     -0.550    18.9673    18.9719      3.763   3.309190     -0.782    9.28187    9.26639 2.9645e+02   998.4181  0.000e+00
     -0.549    18.9690    18.9735      3.763   3.309190     -0.780    9.28157    9.26609 2.9743e+02   998.4178  0.000e+00
     -0.551    18.9702    18.9748      3.695   3.249989     -0.783    9.28134    9.26585 2.9978e+02   998.4175  0.000e+00
     -0.547    18.9714    18.9759      3.695   3.249989     -0.779    9.28112    9.26563 2.9919e+02   998.4173  0.000e+00
     -0.550    18.9723    18.9768      3.628   3.190789     -0.782    9.28095    9.26546 2.9717e+02   998.4171  0.000e+00
     -0.551    18.9735    18.9781      3.695   3.249989     -0.783    9.28071    9.26523 2.9374e+02   998.4168  0.000e+00
     -0.547    18.9716    18.9761      3.695   3.249989     -0.779    9.28108    9.26560 2.9304e+02   998.4172  0.000e+00
     -0.551    18.9601    18.9647      3.763   3.309190     -0.783    9.28322    9.26775 2.9867e+02   998.4195  0.000e+00
     -0.551    18.9498    18.9544      3.562   3.131590     -0.783    9.28516    9.26970 3.1032e+02   998.4214  0.000e+00
     -0.551    18.9482    18.9527      3.529   3.101990     -0.783    9.28547    9.27000 3.0514e+02   998.4218  0.000e+00
     -0.549    18.9488    18.9534      3.562   3.131590     -0.780    9.28535    9.26988 2.9769e+02   998.4216  0.000e+00
     -0.550    18.9494    18.9539      3.562   3.131590     -0.782    9.28525    9.26978 3.0648e+02   998.4215  0.000e+00
     -0.549    18.9450    18.9495      3.563   3.131590     -0.780    9.28607    9.27061 2.9658e+02   998.4224  0.000e+00
     -0.550    18.9327    18.9372      3.631   3.190790     -0.782    9.28838    9.27293 2.9464e+02   998.4248  0.000e+00
     -0.547    18.9235    18.9281      3.564   3.131590     -0.779    9.29010    9.27465 2.8695e+02   998.4266  0.000e+00
     -0.551    18.9189    18.9234      3.632   3.190790     -0.783    9.29098    9.27553 2.9587e+02   998.4275  0.000e+00
     -0.549    18.9146    18.9192      3.565   3.131590     -0.780    9.29177    9.27633 2.9049e+02   998.4283  0.000e+00
     -0.549    18.9115    18.9160      4.779   4.197214     -0.780    9.29234    9.27690 2.6320e+02   998.4292  0.000e+00
     -0.549    18.9108    18.9153      7.340   6.447050     -0.780    9.29243    9.27699 2.5565e+02   998.4299  0.000e+00
     -0.550    18.9120    18.9166      5.958   5.233291     -0.782    9.29222    9.27678 2.7659e+02   998.4293  0.000e+00
     -0.550    18.9101    18.9146      6.026   5.292497     -0.782    9.29259    9.27715 2.8129e+02   998.4297  0.000e+00
     -0.550    18.9058    18.9104      6.229   5.470116     -0.782    9.29338    9.27794 2.7305e+02   998.4306  0.000e+00
     -0.493    18.9053    18.9098     39.187  34.413480     -0.701    9.29277    9.27734 2.4783e+02   998.4408  0.000e+00
     -0.333    19.0056    19.0102    100.884  88.798702     -0.474    9.27246    9.25695 2.4194e+02   998.4428  0.000e+00
     -0.179    19.1766    19.1812     99.989  88.352763     -0.255    9.24057    9.22493 2.4385e+02   998.4096  0.000e+00
     -0.060    19.3041    19.3087     99.265  87.966297     -0.085    9.21693    9.20120 2.0332e+02   998.3846  0.000e+00
     -0.008    19.3812    19.3858     98.959  87.847375     -0.011    9.20268    9.18689 2.2982e+02   998.3694  0.000e+00
      0.013    19.4213    19.4260     98.736  87.728464      0.019    9.19528    9.17946 7.8745e+02   998.3613  0.000e+00
      0.023    19.4448    19.4494     98.650  87.698733      0.032    9.19096    9.17512 8.0662e+02   998.3567  0.000e+00
      0.016    19.4562    19.4609     97.555  86.747560      0.023    9.18888    9.17304 3.4931e+02   998.3540  0.000e+00
      0.015    19.4588    19.4635     98.652  87.728454      0.022    9.18837    9.17252 3.8942e+02   998.3538  0.000e+00
     -0.020    19.4580    19.4627     98.721  87.787903     -0.028    9.18852    9.17267 2.6493e+02   998.3538  0.000e+00
     -0.072    19.4565    19.4611     98.791  87.847353     -0.102    9.18880    9.17296 2.4778e+02   998.3539  0.000e+00
     -0.167    19.4564    19.4610     98.791  87.847352     -0.238    9.18882    9.17297 8.7778e+01   998.3535  0.000e+00
     -0.308    19.4538    19.4585     98.797  87.847352     -0.439    9.18929    9.17345 4.8885e+01   998.3534  0.000e+00
     -0.363    19.4442    19.4489     98.818  87.847354     -0.516    9.19106    9.17522 5.1373e+01   998.3551  0.000e+00
     -0.411    19.4395    19.4441     98.896  87.906805     -0.584    9.19193    9.17610 5.0086e+01   998.3559  0.000e+00
     -0.392    19.4404    19.4451     98.693  87.728455     -0.558    9.19177    9.17593 7.4791e+01   998.3557  0.000e+00
     -0.371    19.4477    19.4524     98.677  87.728454     -0.528    9.19042    9.17458 1.0791e+02   998.3543  0.000e+00
     -0.327    19.4601    19.4648     98.649  87.728450     -0.465    9.18813    9.17228 1.1874e+02   998.3520  0.000e+00
     -0.304    19.4698    19.4745     98.594  87.698723     -0.433    9.18635    9.17049 1.3557e+02   998.3501  0.000e+00
     -0.286    19.4746    19.4792     98.584  87.698722     -0.406    9.18548    9.16961 1.8110e+02   998.3493  0.000e+00
     -0.283    19.4774    19.4821     98.511  87.639272     -0.403    9.18496    9.16909 2.0435e+02   998.3487  0.000e+00
     -0.282    19.4785    19.4832     98.508  87.639271     -0.402    9.18476    9.16889 1.8162e+02   998.3485  0.000e+00
     -0.283    19.4780    19.4827     98.443  87.579822     -0.403    9.18484    9.16898 1.9831e+02   998.3485  0.000e+00
     -0.283    19.4771    19.4818     98.378  87.520373     -0.403    9.18501    9.16915 2.0750e+02   998.3487  0.000e+00
     -0.281    19.4781    19.4828     98.509  87.639271     -0.400    9.18482    9.16896 1.3829e+02   998.3485  0.000e+00
     -0.275    19.4701    19.4748     98.460  87.579825     -0.391    9.18630    9.17045 1.1538e+02   998.3502  0.000e+00
     -0.272    19.4630    19.4676     98.476  87.579827     -0.386    9.18762    9.17176 1.6834e+02   998.3516  0.000e+00
     -0.270    19.4570    19.4617     98.422  87.520379     -0.385    9.18871    9.17286 2.2475e+02   998.3528  0.000e+00
     -0.268    19.4499    19.4546     98.438  87.520381     -0.382    9.19002    9.17418 1.8702e+02   998.3542  0.000e+00
     -0.268    19.4460    19.4507     98.380  87.460934     -0.382    9.19073    9.17489 2.1391e+02   998.3550  0.000e+00
     -0.272    19.4425    19.4472     98.388  87.460935     -0.386    9.19139    9.17555 1.8637e+02   998.3557  0.000e+00
     -0.278    19.4387    19.4434     98.463  87.520384     -0.395    9.19208    9.17624 2.2519e+02   998.3564  0.000e+00
     -0.311    19.4368    19.4415     98.467  87.520385     -0.442    9.19243    9.17660 2.2982e+02   998.3567  0.000e+00
     -0.363    19.4294    19.4341     98.550  87.579835     -0.516    9.19379    9.17796 2.2972e+02   998.3580  0.000e+00
     -0.387    19.4077    19.4124     98.532  87.520392     -0.550    9.19780    9.18198 2.2440e+02   998.3622  0.000e+00
     -0.387    19.3911    19.3958     98.568  87.520397     -0.550    9.20086    9.18506 2.3382e+02   998.3655  0.000e+00
     -0.383    19.3827    19.3874     98.654  87.579849     -0.545    9.20241    9.18661 2.3546e+02   998.3672  0.000e+00
     -0.393    19.3752    19.3798     98.738  87.639300     -0.559    9.20380    9.18801 2.3027e+02   998.3687  0.000e+00
     -0.399    19.3775    19.3822     98.666  87.579850     -0.567    9.20336    9.18758 2.0668e+02   998.3682  0.000e+00
     -0.378    19.3741    19.3787     98.606  87.520402     -0.538    9.20401    9.18822 7.8289e+01   998.3690  0.000e+00
     -0.354    19.3714    19.3761     98.478  87.401505     -0.504    9.20450    9.18871 3.9869e+01   998.3696  0.000e+00
     -0.399    19.3743    19.3790     98.673  87.579851     -0.567    9.20395    9.18817 3.6465e+01   998.3689  0.000e+00
     -0.466    19.4015    19.4062     98.679  87.639292     -0.663    9.19894    9.18313 2.9320e+01   998.3631  0.000e+00
     -0.490    19.4341    19.4387     98.607  87.639282     -0.697    9.19293    9.17710 3.6729e+01   998.3565  0.000e+00
     -0.486    19.4538    19.4585     98.630  87.698726     -0.691    9.18930    9.17345 3.6553e+01   998.3525  0.000e+00
     -0.465    19.4651    19.4697     98.538  87.639274     -0.661    9.18723    9.17137 3.7337e+01   998.3504  0.000e+00
     -0.446    19.4712    19.4759     98.525  87.639272     -0.635    9.18610    9.17024 3.8827e+01   998.3492  0.000e+00
     -0.445    19.4752    19.4799     98.516  87.639271     -0.633    9.18536    9.16950 3.6005e+01   998.3484  0.000e+00
     -0.448    19.4773    19.4820     98.444  87.579821     -0.637    9.18498    9.16911 3.4912e+01   998.3479  0.000e+00
     -0.448    19.4783    19.4830     98.442  87.579821     -0.636    9.18479    9.16893 3.6385e+01   998.3477  0.000e+00
     -0.450    19.4790    19.4837     98.440  87.579821     -0.640    9.18466    9.16879 3.6874e+01   998.3476  0.000e+00
     -0.451    19.4784    19.4831     98.442  87.579821     -0.641    9.18477    9.16891 3.6013e+01   998.3477  0.000e+00
     -0.452    19.4781    19.4828     98.309  87.460923     -0.643    9.18483    9.16896 3.4000e+01   998.3477  0.000e+00
     -0.451    19.4788    19.4834     98.374  87.520372     -0.641    9.18471    9.16884 3.2637e+01   998.3476  0.000e+00
     -0.442    19.4772    19.4819     66.825  59.450314     -0.629    9.18576    9.16989 2.3045e+01   998.3372  0.000e+00
     -0.454    19.4704    19.4751     44.722  39.780075     -0.646    9.18752    9.17166 1.7911e+01   998.3312  0.000e+00
     -0.512    19.4562    19.4609     58.313  51.852889     -0.728    9.18983    9.17398 1.7212e+01   998.3382  0.000e+00
     -0.539    19.4379    19.4426     98.665  87.698730     -0.766    9.19222    9.17639 2.2884e+01   998.3555  0.000e+00
     -0.541    19.4265    19.4312     98.624  87.639284     -0.769    9.19433    9.17850 2.6105e+01   998.3578  0.000e+00
     -0.540    19.4183    19.4230     98.374  87.401491     -0.768    9.19585    9.18003 1.6925e+01   998.3593  0.000e+00
     -0.540    19.4156    19.4203     58.934  52.357324     -0.768    9.19729    9.18147 1.4377e+01   998.3464  0.000e+00
     -0.543    19.4155    19.4201     54.793  48.678259     -0.772    9.19742    9.18160 1.7555e+01   998.3451  0.000e+00
     -0.541    19.4156    19.4203     58.166  51.674866     -0.769    9.19731    9.18149 2.3410e+01   998.3462  0.000e+00
     -0.459    19.4163    19.4209     89.715  79.704368     -0.653    9.19643    9.18061 3.9991e+01   998.3571  0.000e+00
     -0.360    19.4168    19.4215     83.895  74.534978     -0.511    9.19647    9.18065 4.8353e+01   998.3555  0.000e+00
     -0.312    19.4114    19.4161     97.888  86.955635     -0.443    9.19712    9.18131 5.0993e+01   998.3616  0.000e+00
     -0.299    19.4004    19.4051     97.109  86.242283     -0.425    9.19918    9.18337 5.7073e+01   998.3636  0.000e+00
     -0.302    19.3928    19.3974     97.058  86.182840     -0.429    9.20059    9.18479 7.7049e+01   998.3651  0.000e+00
     -0.298    19.3884    19.3930     96.566  85.737009     -0.423    9.20141    9.18562 9.9609e+01   998.3658  0.000e+00
     -0.264    19.3854    19.3900     97.275  86.361178     -0.375    9.20195    9.18616 1.6327e+02   998.3668  0.000e+00
     -0.253    19.3805    19.3852     98.458  87.401504     -0.360    9.20281    9.18702 2.1400e+02   998.3682  0.000e+00
     -0.257    19.3700    19.3746     96.472  85.618127     -0.366    9.20482    9.18903 2.1983e+02   998.3696  0.000e+00
     -0.261    19.3635    19.3681     73.721  65.417520     -0.371    9.20656    9.19078 2.0080e+02   998.3631  0.000e+00
     -0.269    19.3590    19.3637     68.074  60.400219     -0.383    9.20752    9.19175 1.8394e+02   998.3620  0.000e+00
     -0.274    19.3568    19.3614     66.572  59.064462     -0.389    9.20798    9.19221 2.0186e+02   998.3620  0.000e+00
     -0.270    19.3548    19.3594     65.203  57.847517     -0.385    9.20838    9.19261 2.0664e+02   998.3619  0.000e+00
     -0.262    19.3539    19.3586     65.706  58.292732     -0.372    9.20852    9.19275 2.1659e+02   998.3623  0.000e+00
     -0.254    19.3537    19.3583     67.078  59.509705     -0.361    9.20854    9.19277 2.1659e+02   998.3628  0.000e+00
     -0.253    19.3534    19.3580     91.416  81.100943     -0.360    9.20800    9.19223 2.1555e+02   998.3712  0.000e+00
     -0.251    19.3538    19.3585     72.968  64.734620     -0.357    9.20837    9.19259 2.1102e+02   998.3648  0.000e+00
     -0.244    19.3567    19.3613     85.248  75.634121     -0.348    9.20755    9.19177 9.9849e+01   998.3685  0.000e+00
     -0.237    19.3603    19.3650     98.637  87.520407     -0.337    9.20655    9.19077 2.0691e+02   998.3724  0.000e+00
     -0.236    19.3655    19.3701     98.558  87.460957     -0.335    9.20559    9.18981 2.1001e+02   998.3713  0.000e+00
     -0.238    19.3682    19.3729     98.619  87.520405     -0.338    9.20508    9.18930 2.1251e+02   998.3708  0.000e+00
     -0.240    19.3710    19.3756     98.613  87.520404     -0.341    9.20458    9.18879 2.1311e+02   998.3702  0.000e+00
     -0.239    19.3777    19.3824     98.598  87.520402     -0.340    9.20333    9.18754 2.1508e+02   998.3689  0.000e+00
     -0.240    19.3878    19.3925     98.576  87.520399     -0.341    9.20147    9.18567 2.1645e+02   998.3668  0.000e+00
     -0.241    19.3971    19.4018     98.555  87.520397     -0.343    9.19975    9.18394 2.1721e+02   998.3650  0.000e+00
     -0.239    19.4061    19.4107     98.535  87.520394     -0.340    9.19810    9.18229 2.1461e+02   998.3632  0.000e+00
     -0.238    19.4155    19.4201     98.447  87.460943     -0.338    9.19637    9.18055 2.1654e+02   998.3613  0.000e+00
     -0.237    19.4229    19.4275     98.431  87.460940     -0.337    9.19501    9.17918 2.1061e+02   998.3598  0.000e+00
     -0.236    19.4280    19.4326     98.420  87.460939     -0.335    9.19406    9.17824 2.0909e+02   998.3588  0.000e+00
     -0.236    19.4315    19.4362     98.412  87.460938     -0.335    9.19341    9.17758 2.0727e+02   998.3581  0.000e+00
     -0.232    19.4340    19.4387     98.473  87.520386     -0.331    9.19295    9.17712 2.0955e+02   998.3576  0.000e+00
     -0.230    19.4354    19.4400     98.403  87.460937     -0.327    9.19270    9.17687 2.0941e+02   998.3573  0.000e+00
     -0.230    19.4358    19.4405     98.469  87.520386     -0.327    9.19262    9.17678 2.0426e+02   998.3572  0.000e+00
     -0.227    19.4365    19.4412     98.401  87.460937     -0.323    9.19248    9.17665 2.0168e+02   998.3571  0.000e+00
     -0.226    19.4371    19.4418     98.399  87.460936     -0.321    9.19238    9.17655 2.0673e+02   998.3570  0.000e+00
     -0.223    19.4379    19.4426     98.398  87.460936     -0.317    9.19223    9.17640 1.9732e+02   998.3568  0.000e+00
     -0.239    19.4381    19.4428     98.397  87.460936     -0.340    9.19220    9.17636 1.9788e+02   998.3567  0.000e+00
     -0.253    19.4371    19.4418     98.266  87.342039     -0.360    9.19238    9.17655 1.9091e+02   998.3568  0.000e+00
     -0.283    19.4364    19.4410     98.401  87.460936     -0.403    9.19252    9.17668 5.8951e+01   998.3569  0.000e+00
     -0.389    19.4361    19.4408     98.402  87.460935     -0.553    9.19257    9.17673 3.1805e+01   998.3565  0.000e+00
     -0.472    19.4127    19.4174     98.454  87.460941     -0.672    9.19687    9.18106 2.2724e+01   998.3608  0.000e+00
     -0.516    19.3770    19.3816     98.600  87.520400     -0.734    9.20347    9.18768 2.7753e+01   998.3678  0.000e+00
     -0.529    19.3577    19.3623     98.576  87.460957     -0.752    9.20704    9.19126 1.5972e+01   998.3716  0.000e+00
     -0.529    19.3490    19.3537     98.729  87.579857     -0.752    9.20863    9.19286 1.6158e+01   998.3733  0.000e+00
     -0.528    19.3469    19.3516     98.734  87.579858     -0.751    9.20902    9.19325 1.6906e+01   998.3738  0.000e+00
     -0.528    19.3634    19.3681     87.445  77.594872     -0.751    9.20625    9.19047 1.0988e+01   998.3666  0.000e+00
     -0.528    19.3746    19.3793     66.545  59.064457     -0.751    9.20468    9.18890 1.0624e+01   998.3572  0.000e+00
     -0.529    19.3810    19.3856     98.959  87.847371     -0.752    9.20272    9.18693 1.0531e+01   998.3670  0.000e+00
     -0.528    19.3853    19.3899     98.883  87.787920     -0.751    9.20193    9.18613 1.0617e+01   998.3662  0.000e+00
     -0.530    19.3894    19.3940     66.423  58.975407     -0.754    9.20196    9.18616 1.0120e+01   998.3542  0.000e+00
     -0.526    19.3938    19.3984     62.973  55.918355     -0.748    9.20123    9.18543 1.3534e+01   998.3522  0.000e+00
     -0.524    19.3980    19.4027     98.754  87.698742     -0.745    9.19958    9.18377 1.1459e+01   998.3636  0.000e+00
     -0.520    19.3980    19.4027     98.553  87.520394     -0.740    9.19958    9.18378 1.2045e+01   998.3635  0.000e+00
     -0.527    19.3782    19.3828     98.530  87.460951     -0.749    9.20325    9.18746 1.1903e+01   998.3675  0.000e+00
     -0.527    19.3616    19.3662     98.869  87.728477     -0.749    9.20631    9.19053 1.1186e+01   998.3709  0.000e+00
     -0.532    19.3573    19.3620     86.753  76.970976     -0.757    9.20739    9.19162 8.1442e+00   998.3675  0.000e+00
     -0.532    19.3592    19.3639     52.689  46.749994     -0.757    9.20785    9.19208 1.1419e+01   998.3557  0.000e+00
     -0.532    19.3627    19.3673     52.117  46.245707     -0.757    9.20723    9.19145 9.6193e+00   998.3548  0.000e+00
     -0.532    19.3656    19.3702     79.105  70.198478     -0.757    9.20605    9.19027 1.0816e+01   998.3633  0.000e+00
     -0.512    19.3674    19.3721     98.923  87.787925     -0.728    9.20523    9.18944 1.6541e+01   998.3698  0.000e+00
     -0.438    19.3694    19.3741     98.684  87.579852     -0.623    9.20486    9.18908 3.1501e+01   998.3697  0.000e+00
     -0.376    19.3726    19.3773     98.543  87.460954     -0.534    9.20428    9.18849 7.9794e+01   998.3693  0.000e+00
     -0.342    19.3722    19.3769     98.476  87.401505     -0.487    9.20435    9.18856 1.6337e+02   998.3695  0.000e+00
     -0.323    19.3644    19.3691     98.561  87.460956     -0.459    9.20579    9.19001 2.1442e+02   998.3711  0.000e+00
     -0.239    19.3555    19.3601     65.771  58.352095     -0.340    9.20824    9.19246 2.3480e+02   998.3621  0.000e+00
     -0.124    19.3629    19.3675     97.358  86.390909     -0.176    9.20611    9.19033 4.3643e+02   998.3719  0.000e+00
     -0.053    19.3946    19.3992     97.858  86.896194     -0.076    9.20024    9.18443 2.2152e+02   998.3661  0.000e+00
      0.019    19.4152    19.4198     98.515  87.520394      0.026    9.19642    9.18060 3.7080e+02   998.3625  0.000e+00
      0.052    19.4271    19.4318     98.488  87.520390      0.074    9.19421    9.17839 5.0787e+02   998.3603  0.000e+00
      0.051    19.4356    19.4403     98.403  87.460939      0.073    9.19265    9.17682 3.7480e+02   998.3585  0.000e+00
      0.045    19.4410    19.4457     98.458  87.520386      0.063    9.19166    9.17582 2.2123e+02   998.3574  0.000e+00
      0.023    19.4446    19.4493     98.450  87.520385      0.033    9.19100    9.17516 2.8846e+02   998.3566  0.000e+00
      0.010    19.4488    19.4535     98.440  87.520384      0.014    9.19023    9.17438 2.1015e+02   998.3557  0.000e+00
      0.012    19.4543    19.4589     98.495  87.579831      0.017    9.18922    9.17337 1.5387e+02   998.3547  0.000e+00
      0.022    19.4606    19.4652     98.548  87.639279      0.031    9.18805    9.17220 1.3565e+02   998.3534  0.000e+00
      0.039    19.4664    19.4711     98.468  87.579828      0.056    9.18698    9.17112 1.3868e+02   998.3523  0.000e+00
      0.046    19.4694    19.4741     98.395  87.520378      0.065    9.18642    9.17057 1.4822e+02   998.3517  0.000e+00
      0.055    19.4711    19.4758     98.391  87.520378      0.079    9.18612    9.17026 1.5296e+02   998.3514  0.000e+00
      0.060    19.4744    19.4791     98.451  87.579826      0.085    9.18551    9.16965 1.7434e+02   998.3508  0.000e+00
      0.066    19.4769    19.4816     98.378  87.520376      0.094    9.18504    9.16918 1.6184e+02   998.3503  0.000e+00
      0.069    19.4785    19.4832     98.442  87.579825      0.097    9.18476    9.16889 2.2036e+02   998.3500  0.000e+00
      0.072    19.4796    19.4843     98.372  87.520376      0.102    9.18456    9.16869 2.5688e+02   998.3498  0.000e+00
      0.072    19.4789    19.4835     98.307  87.460927      0.102    9.18469    9.16883 1.9137e+02   998.3499  0.000e+00
      0.073    19.4782    19.4829     98.308  87.460927      0.104    9.18481    9.16895 5.1604e+02   998.3501  0.000e+00
      0.077    19.4787    19.4834     98.374  87.520376      0.110    9.18472    9.16886 2.3811e+02   998.3500  0.000e+00
      0.082    19.4792    19.4839     98.239  87.401478      0.116    9.18463    9.16876 2.4460e+02   998.3499  0.000e+00
      0.083    19.4768    19.4814     98.312  87.460928      0.118    9.18508    9.16922 3.0567e+02   998.3504  0.000e+00
      0.083    19.4707    19.4754     98.392  87.520378      0.118    9.18619    9.17033 2.0212e+02   998.3516  0.000e+00
      0.085    19.4626    19.4673     98.343  87.460932      0.121    9.18769    9.17183 3.6749e+02   998.3533  0.000e+00
      0.084    19.4541    19.4588     98.429  87.520383      0.119    9.18925    9.17340 3.1969e+02   998.3550  0.000e+00
      0.080    19.4442    19.4489     98.384  87.460937      0.114    9.19107    9.17523 3.4954e+02   998.3569  0.000e+00
      0.080    19.4368    19.4415     98.400  87.460939      0.114    9.19243    9.17660 3.1892e+02   998.3584  0.000e+00
      0.082    19.4344    19.4390     98.406  87.460940      0.116    9.19289    9.17705 1.7271e+02   998.3589  0.000e+00
      0.085    19.4355    19.4401     98.403  87.460939      0.121    9.19268    9.17685 2.2652e+02   998.3587  0.000e+00
      0.086    19.4359    19.4406     98.402  87.460939      0.122    9.19260    9.17677 2.2123e+02   998.3586  0.000e+00
      0.083    19.4344    19.4390     98.339  87.401491      0.118    9.19289    9.17706 1.9320e+03   998.3589  0.000e+00
      0.085    19.4321    19.4367     98.411  87.460940      0.121    9.19331    9.17748 2.6493e+02   998.3594  0.000e+00
      0.089    19.4305    19.4352     98.414  87.460941      0.127    9.19359    9.17776 1.9313e+02   998.3597  0.000e+00
      0.094    19.4302    19.4348     98.348  87.401492      0.133    9.19366    9.17783 6.1675e+02   998.3598  0.000e+00
      0.099    19.4300    19.4346     98.415  87.460941      0.141    9.19369    9.17786 2.5869e+02   998.3599  0.000e+00
      0.103    19.4294    19.4341     98.416  87.460941      0.147    9.19379    9.17797 3.8645e+02   998.3600  0.000e+00
      0.099    19.4294    19.4341     98.350  87.401493      0.141    9.19380    9.17797 3.3870e+02   998.3600  0.000e+00
      0.092    19.4285    19.4332     98.419  87.460942      0.131    9.19396    9.17813 3.1360e+02   998.3601  0.000e+00
      0.090    19.4273    19.4320     98.421  87.460942      0.128    9.19418    9.17835 2.7341e+02   998.3604  0.000e+00
      0.090    19.4264    19.4311     98.356  87.401493      0.128    9.19435    9.17853 2.8037e+02   998.3605  0.000e+00
      0.092    19.4268    19.4314     98.422  87.460942      0.131    9.19428    9.17846 3.9786e+02   998.3605  0.000e+00
      0.095    19.4273    19.4320     98.354  87.401493      0.135    9.19418    9.17836 2.7769e+02   998.3604  0.000e+00
      0.096    19.4278    19.4324     98.353  87.401493      0.136    9.19410    9.17827 2.1574e+02   998.3603  0.000e+00
      0.096    19.4277    19.4324     98.353  87.401493      0.136    9.19412    9.17829 2.6395e+02   998.3603  0.000e+00
      0.092    19.4281    19.4328     98.419  87.460942      0.131    9.19403    9.17820 3.1698e+02   998.3602  0.000e+00
      0.090    19.4279    19.4325     98.353  87.401493      0.128    9.19408    9.17825 3.4235e+02   998.3602  0.000e+00
      0.088    19.4273    19.4320     98.354  87.401493      0.125    9.19418    9.17836 3.9242e+02   998.3603  0.000e+00
      0.090    19.4268    19.4314     98.355  87.401493      0.128    9.19428    9.17846 5.7493e+02   998.3605  0.000e+00
      0.092    19.4269    19.4315     98.422  87.460942      0.131    9.19427    9.17844 3.0334e+02   998.3605  0.000e+00
      0.097    19.4278    19.4324     98.353  87.401493      0.138    9.19410    9.17827 2.8613e+02   998.3603  0.000e+00
      0.087    19.4281    19.4327     98.420  87.460942      0.124    9.19405    9.17822 3.3715e+02   998.3602  0.000e+00
      0.084    19.4277    19.4324     98.353  87.401493      0.119    9.19412    9.17829 3.1642e+02   998.3602  0.000e+00
      0.085    19.4288    19.4335     98.351  87.401493      0.121    9.19391    9.17809 3.6017e+02   998.3600  0.000e+00
      0.082    19.4301    19.4347     98.348  87.401492      0.116    9.19368    9.17785 3.6064e+02   998.3598  0.000e+00
      0.082    19.4310    19.4356     98.413  87.460941      0.116    9.19351    9.17768 3.4242e+02   998.3596  0.000e+00
      0.087    19.4316    19.4363     98.345  87.401492      0.124    9.19339    9.17756 3.7284e+02   998.3595  0.000e+00
      0.090    19.4315    19.4362     98.345  87.401492      0.128    9.19341    9.17758 2.7666e+02   998.3595  0.000e+00
      0.096    19.4309    19.4356     98.346  87.401492      0.136    9.19353    9.17770 2.2931e+02   998.3597  0.000e+00
      0.100    19.4301    19.4347     98.348  87.401492      0.142    9.19368    9.17785 3.1865e+02   998.3598  0.000e+00
      0.098    19.4281    19.4328     98.352  87.401493      0.139    9.19403    9.17820 5.1695e+02   998.3602  0.000e+00
      0.091    19.4173    19.4219     98.443  87.460945      0.130    9.19603    9.18021 2.7008e+02   998.3624  0.000e+00
      0.082    19.3973    19.4020     98.488  87.460950      0.116    9.19972    9.18391 2.7037e+02   998.3664  0.000e+00
      0.074    19.3807    19.3854     98.525  87.460955      0.105    9.20278    9.18699 4.1005e+02   998.3697  0.000e+00
      0.076    19.3720    19.3766     98.477  87.401509      0.108    9.20440    9.18861 2.5632e+02   998.3714  0.000e+00
      0.077    19.3686    19.3732     98.551  87.460958      0.110    9.20502    9.18923 2.7878e+02   998.3721  0.000e+00
      0.080    19.3673    19.3720     98.487  87.401510      0.114    9.20525    9.18947 2.1112e+02   998.3723  0.000e+00
      0.082    19.3673    19.3720     98.554  87.460959      0.116    9.20525    9.18947 2.2416e+02   998.3724  0.000e+00
      0.085    19.3670    19.3716     98.555  87.460959      0.121    9.20532    9.18954 2.8302e+02   998.3725  0.000e+00
      0.094    19.3681    19.3728     98.485  87.401510      0.133    9.20510    9.18932 3.1435e+02   998.3722  0.000e+00
      0.110    19.3704    19.3751     98.480  87.401509      0.156    9.20468    9.18890 2.9163e+02   998.3719  0.000e+00
      0.120    19.3723    19.3770     98.476  87.401509      0.170    9.20433    9.18854 2.6919e+02   998.3715  0.000e+00
      0.117    19.3731    19.3777     98.475  87.401509      0.167    9.20419    9.18841 2.4599e+02   998.3714  0.000e+00
      0.107    19.3725    19.3772     98.543  87.460958      0.152    9.20429    9.18851 4.2197e+02   998.3714  0.000e+00
      0.098    19.3713    19.3760     98.612  87.520407      0.139    9.20451    9.18873 2.1873e+02   998.3717  0.000e+00
      0.096    19.3699    19.3745     98.415  87.342061      0.136    9.20478    9.18900 2.7842e+02   998.3719  0.000e+00
      0.100    19.3686    19.3732     98.484  87.401510      0.142    9.20502    9.18924 3.2166e+02   998.3722  0.000e+00
      0.107    19.3685    19.3732     98.485  87.401510      0.152    9.20504    9.18925 2.4870e+02   998.3722  0.000e+00
      0.104    19.3672    19.3719     98.487  87.401510      0.148    9.20527    9.18949 2.8209e+02   998.3725  0.000e+00
      0.102    19.3659    19.3705     98.558  87.460959      0.145    9.20552    9.18974 6.8728e+02   998.3728  0.000e+00
      0.103    19.3656    19.3702     98.491  87.401511      0.147    9.20557    9.18979 2.2757e+02   998.3728  0.000e+00
      0.098    19.3661    19.3708     98.557  87.460959      0.139    9.20547    9.18969 2.5453e+02   998.3727  0.000e+00
      0.085    19.3670    19.3716     98.622  87.520408      0.121    9.20532    9.18954 3.9233e+02   998.3725  0.000e+00
      0.075    19.3660    19.3706     98.557  87.460959      0.107    9.20551    9.18972 2.1892e+02   998.3726  0.000e+00
      0.073    19.3634    19.3681     98.563  87.460960      0.104    9.20598    9.19020 2.7485e+02   998.3731  0.000e+00
      0.073    19.3617    19.3663     98.567  87.460960      0.104    9.20630    9.19052 2.6896e+02   998.3735  0.000e+00
      0.073    19.3611    19.3658     98.501  87.401512      0.104    9.20640    9.19062 3.2067e+02   998.3736  0.000e+00
      0.073    19.3611    19.3658     98.501  87.401512      0.104    9.20640    9.19062 4.8976e+02   998.3736  0.000e+00
      0.072    19.3613    19.3660     98.568  87.460960      0.102    9.20636    9.19059 3.7983e+02   998.3735  0.000e+00
      0.065    19.3603    19.3650     98.503  87.401512      0.093    9.20655    9.19077 1.2872e+02   998.3737  0.000e+00
      0.065    19.3589    19.3636     98.573  87.460961      0.093    9.20680    9.19102 2.5812e+02   998.3740  0.000e+00
      0.069    19.3591    19.3638     98.573  87.460961      0.097    9.20677    9.19099 3.4056e+02   998.3740  0.000e+00
      0.076    19.3602    19.3649     98.503  87.401512      0.108    9.20657    9.19079 4.3206e+02   998.3738  0.000e+00
      0.095    19.3615    19.3661     98.567  87.460961      0.135    9.20633    9.19055 2.5891e+02   998.3736  0.000e+00
      0.113    19.3631    19.3678     98.564  87.460960      0.161    9.20603    9.19025 3.6310e+02   998.3734  0.000e+00
      0.128    19.3671    19.3718     98.488  87.401511      0.182    9.20529    9.18951 3.8200e+02   998.3726  0.000e+00
      0.141    19.3742    19.3789     98.539  87.460957      0.201    9.20397    9.18819 3.2498e+02   998.3713  0.000e+00
      0.159    19.3893    19.3939     98.506  87.460953      0.226    9.20120    9.18540 1.3316e+02   998.3683  0.000e+00
      0.187    19.4052    19.4098     98.470  87.460949      0.266    9.19827    9.18246 3.6773e+02   998.3653  0.000e+00
      0.227    19.4198    19.4245     98.438  87.460945      0.323    9.19556    9.17974 3.0735e+02   998.3625  0.000e+00
      0.260    19.4303    19.4350     98.414  87.460942      0.369    9.19363    9.17780 4.1848e+02   998.3605  0.000e+00
      0.296    19.4371    19.4418     98.399  87.460941      0.420    9.19238    9.17655 5.9489e+02   998.3593  0.000e+00
      0.339    19.4471    19.4517     98.444  87.520387      0.482    9.19055    9.17470 3.6605e+02   998.3576  0.000e+00
      0.381    19.4559    19.4606     98.425  87.520385      0.542    9.18891    9.17307 3.9096e+02   998.3560  0.000e+00
      0.425    19.4662    19.4709     98.335  87.460934      0.604    9.18701    9.17116 3.0816e+02   998.3541  0.000e+00
      0.449    19.4680    19.4727     98.264  87.401485      0.638    9.18670    9.17084 2.2534e+02   998.3538  0.000e+00
      0.432    19.4606    19.4652     98.348  87.460935      0.615    9.18806    9.17221 2.9972e+02   998.3552  0.000e+00
      0.364    19.4253    19.4300     98.426  87.460945      0.518    9.19455    9.17873 5.6980e+02   998.3620  0.000e+00
      0.289    19.3866    19.3913     98.511  87.460955      0.411    9.20169    9.18589 5.1955e+02   998.3694  0.000e+00
      0.291    19.3686    19.3732     98.551  87.460960      0.414    9.20502    9.18923 4.6654e+02   998.3731  0.000e+00
      0.346    19.3711    19.3758     98.546  87.460960      0.492    9.20455    9.18876 3.9164e+02   998.3728  0.000e+00
      0.383    19.4017    19.4063     98.545  87.520400      0.544    9.19891    9.18310 3.6246e+02   998.3669  0.000e+00
      0.385    19.4280    19.4326     98.420  87.460944      0.547    9.19406    9.17824 2.9620e+02   998.3616  0.000e+00
      0.372    19.4321    19.4367     98.478  87.520392      0.529    9.19331    9.17747 2.5414e+02   998.3607  0.000e+00
      0.359    19.4293    19.4340     98.684  87.698740      0.510    9.19380    9.17798 4.1574e+02   998.3613  0.000e+00
      0.349    19.4571    19.4618     98.623  87.698732      0.496    9.18869    9.17284 2.5187e+02   998.3556  0.000e+00
      0.349    19.4815    19.4862     98.568  87.698725      0.496    9.18420    9.16833 4.3653e+02   998.3507  0.000e+00
      0.355    19.4936    19.4983     98.542  87.698722      0.505    9.18198    9.16610 2.8228e+02   998.3483  0.000e+00
      0.364    19.4990    19.5037     98.463  87.639271      0.518    9.18099    9.16511 5.3209e+02   998.3472  0.000e+00
      0.367    19.5022    19.5069     98.456  87.639270      0.522    9.18040    9.16452 4.3911e+02   998.3466  0.000e+00
      0.364    19.5036    19.5082     98.520  87.698719      0.518    9.18014    9.16426 4.7979e+02   998.3463  0.000e+00
      0.351    19.5039    19.5086     98.519  87.698719      0.499    9.18008    9.16419 3.8192e+02   998.3462  0.000e+00
      0.339    19.5038    19.5085     98.452  87.639269      0.482    9.18010    9.16421 3.4048e+02   998.3462  0.000e+00
      0.338    19.5037    19.5084     98.452  87.639269      0.481    9.18011    9.16423 7.5754e+02   998.3462  0.000e+00
      0.350    19.5036    19.5082     98.453  87.639269      0.498    9.18015    9.16426 4.1176e+02   998.3463  0.000e+00
      0.369    19.5028    19.5075     98.521  87.698719      0.525    9.18028    9.16440 2.5492e+02   998.3465  0.000e+00
      0.380    19.5034    19.5081     98.520  87.698719      0.541    9.18018    9.16429 5.4564e+02   998.3465  0.000e+00
      0.379    19.5041    19.5088     98.452  87.639269      0.539    9.18004    9.16416 4.1565e+02   998.3463  0.000e+00
      0.374    19.5045    19.5092     98.451  87.639269      0.532    9.17998    9.16409 5.6607e+02   998.3462  0.000e+00
      0.367    19.5040    19.5087     98.519  87.698719      0.522    9.18006    9.16418 5.6867e+02   998.3463  0.000e+00
      0.372    19.5039    19.5086     98.519  87.698719      0.529    9.18008    9.16419 4.3500e+02   998.3463  0.000e+00
      0.377    19.5042    19.5089     98.451  87.639269      0.536    9.18003    9.16414 3.2243e+02   998.3463  0.000e+00
      0.383    19.5042    19.5089     98.451  87.639269      0.544    9.18003    9.16414 6.2709e+02   998.3463  0.000e+00
      0.386    19.5037    19.5084     98.519  87.698719      0.549    9.18011    9.16423 2.8613e+02   998.3464  0.000e+00
      0.383    19.5038    19.5085     98.519  87.698719      0.544    9.18009    9.16421 6.1111e+02   998.3464  0.000e+00
      0.375    19.5045    19.5092     98.518  87.698719      0.533    9.17998    9.16409 3.9664e+02   998.3462  0.000e+00
      0.372    19.5042    19.5089     98.451  87.639269      0.529    9.18003    9.16414 2.9542e+02   998.3462  0.000e+00
      0.371    19.5037    19.5083     98.519  87.698719      0.527    9.18013    9.16424 2.0635e+03   998.3464  0.000e+00
      0.377    19.5036    19.5082     98.520  87.698719      0.536    9.18014    9.16426 3.1649e+02   998.3464  0.000e+00
      0.381    19.5039    19.5086     98.519  87.698719      0.543    9.18008    9.16419 3.3692e+02   998.3464  0.000e+00
      0.383    19.5036    19.5082     98.453  87.639270      0.544    9.18015    9.16426 4.6624e+02   998.3464  0.000e+00
      0.379    19.5037    19.5083     98.519  87.698719      0.539    9.18013    9.16424 8.5720e+02   998.3464  0.000e+00
      0.378    19.5037    19.5083     98.519  87.698719      0.538    9.18013    9.16424 8.2591e+02   998.3464  0.000e+00
      0.383    19.5039    19.5086     98.519  87.698719      0.544    9.18008    9.16419 2.2085e+02   998.3464  0.000e+00
      0.386    19.5043    19.5090     98.518  87.698719      0.549    9.18001    9.16413 2.8370e+02   998.3463  0.000e+00
      0.387    19.5041    19.5088     98.452  87.639270      0.550    9.18004    9.16416 2.9633e+02   998.3463  0.000e+00
      0.388    19.5040    19.5087     98.452  87.639270      0.552    9.18006    9.16418 4.8645e+02   998.3463  0.000e+00
      0.387    19.5045    19.5092     98.451  87.639269      0.550    9.17998    9.16409 4.1931e+02   998.3462  0.000e+00
      0.390    19.5046    19.5092     98.517  87.698719      0.555    9.17996    9.16407 1.0783e+03   998.3463  0.000e+00
      0.388    19.5042    19.5089     98.518  87.698719      0.552    9.18003    9.16414 1.9693e+02   998.3463  0.000e+00
      0.388    19.5041    19.5088     98.452  87.639270      0.552    9.18004    9.16416 2.5243e+02   998.3463  0.000e+00
      0.387    19.5045    19.5092     98.518  87.698719      0.550    9.17998    9.16409 3.3202e+02   998.3463  0.000e+00
      0.387    19.5041    19.5088     98.452  87.639270      0.550    9.18004    9.16416 2.5829e+02   998.3463  0.000e+00
      0.387    19.5034    19.5081     98.520  87.698719      0.550    9.18018    9.16429 4.7989e+02   998.3465  0.000e+00
      0.387    19.5032    19.5079     98.520  87.698719      0.550    9.18021    9.16433 2.4316e+02   998.3465  0.000e+00
      0.389    19.5032    19.5079     98.520  87.698719      0.553    9.18021    9.16433 4.6046e+02   998.3465  0.000e+00
      0.389    19.5032    19.5079     98.520  87.698719      0.553    9.18021    9.16433 3.2011e+02   998.3465  0.000e+00
      0.388    19.5030    19.5077     98.521  87.698719      0.552    9.18025    9.16436 3.9474e+02   998.3466  0.000e+00
      0.385    19.5028    19.5075     98.521  87.698719      0.547    9.18028    9.16440 6.9941e+02   998.3466  0.000e+00
      0.386    19.5029    19.5076     98.454  87.639270      0.549    9.18026    9.16438 2.8092e+02   998.3466  0.000e+00
      0.386    19.5028    19.5075     98.521  87.698719      0.549    9.18028    9.16440 6.9484e+02   998.3466  0.000e+00
      0.388    19.5030    19.5077     98.521  87.698719      0.552    9.18025    9.16436 2.8998e+02   998.3466  0.000e+00
      0.389    19.5034    19.5081     98.520  87.698719      0.553    9.18018    9.16429 2.9349e+02   998.3465  0.000e+00
      0.392    19.5043    19.5090     98.451  87.639270      0.558    9.18001    9.16413 9.3906e+02   998.3463  0.000e+00
      0.399    19.5047    19.5093     98.450  87.639269      0.567    9.17994    9.16406 7.7820e+02   998.3463  0.000e+00
      0.403    19.5048    19.5094     98.517  87.698719      0.573    9.17993    9.16404 8.7309e+02   998.3463  0.000e+00
      0.403    19.5049    19.5096     98.517  87.698719      0.573    9.17989    9.16401 1.9158e+02   998.3462  0.000e+00
      0.407    19.5055    19.5102     98.515  87.698719      0.580    9.17979    9.16391 3.5899e+02   998.3462  0.000e+00
      0.409    19.5059    19.5106     98.514  87.698719      0.581    9.17971    9.16382 2.4051e+02   998.3461  0.000e+00
      0.408    19.5060    19.5107     98.548  87.728443      0.580    9.17969    9.16380 4.0391e+02   998.3461  0.000e+00
      0.408    19.5057    19.5103     98.515  87.698719      0.580    9.17976    9.16387 3.0090e+02   998.3461  0.000e+00
      0.405    19.5059    19.5106     98.514  87.698719      0.577    9.17971    9.16382 4.7717e+02   998.3461  0.000e+00
      0.406    19.5062    19.5109     98.447  87.639269      0.578    9.17966    9.16377 2.5520e+02   998.3460  0.000e+00
      0.406    19.5057    19.5103     98.515  87.698719      0.578    9.17976    9.16387 2.4767e+02   998.3461  0.000e+00
      0.408    19.5054    19.5101     98.516  87.698719      0.580    9.17981    9.16392 4.7467e+02   998.3462  0.000e+00
      0.409    19.5058    19.5105     98.448  87.639269      0.581    9.17973    9.16384 2.1181e+02   998.3461  0.000e+00
      0.409    19.5063    19.5110     98.514  87.698718      0.581    9.17964    9.16375 3.4430e+02   998.3460  0.000e+00
      0.408    19.5064    19.5111     98.513  87.698718      0.580    9.17962    9.16374 2.5852e+02   998.3460  0.000e+00
      0.406    19.5060    19.5107     98.514  87.698719      0.578    9.17969    9.16380 2.1251e+02   998.3460  0.000e+00
      0.408    19.5063    19.5110     98.514  87.698718      0.580    9.17964    9.16375 4.7582e+02   998.3460  0.000e+00
      0.409    19.5067    19.5114     98.513  87.698718      0.581    9.17957    9.16369 4.0418e+02   998.3459  0.000e+00
      0.411    19.5066    19.5113     98.513  87.698718      0.584    9.17959    9.16370 1.2424e+02   998.3459  0.000e+00
      0.414    19.5062    19.5109     98.547  87.728443      0.589    9.17966    9.16377 2.8092e+02   998.3460  0.000e+00
      0.416    19.5062    19.5109     98.447  87.639269      0.592    9.17966    9.16377 1.7863e+02   998.3460  0.000e+00
      0.414    19.5067    19.5114     98.513  87.698718      0.589    9.17957    9.16369 1.3010e+02   998.3459  0.000e+00
      0.417    19.5068    19.5114     98.513  87.698718      0.594    9.17956    9.16367 1.3348e+02   998.3459  0.000e+00
      0.417    19.5062    19.5109     98.447  87.639269      0.594    9.17966    9.16377 1.1996e+02   998.3460  0.000e+00
      0.421    19.5058    19.5105     98.515  87.698719      0.598    9.17972    9.16384 2.4799e+02   998.3461  0.000e+00
      0.421    19.5061    19.5108     98.514  87.698719      0.598    9.17967    9.16379 1.2456e+02   998.3461  0.000e+00
      0.422    19.5062    19.5109     98.514  87.698719      0.600    9.17966    9.16377 1.1445e+02   998.3461  0.000e+00
      0.421    19.5057    19.5103     98.515  87.698719      0.598    9.17976    9.16387 1.1729e+02   998.3462  0.000e+00
      0.422    19.5053    19.5100     98.516  87.698719      0.600    9.17982    9.16394 1.4432e+02   998.3463  0.000e+00
      0.419    19.5056    19.5103     98.448  87.639269      0.597    9.17978    9.16389 1.1868e+02   998.3462  0.000e+00
      0.421    19.5058    19.5105     98.448  87.639269      0.598    9.17973    9.16384 1.1212e+02   998.3461  0.000e+00
      0.419    19.5059    19.5106     98.514  87.698719      0.597    9.17971    9.16382 1.2380e+02   998.3461  0.000e+00
      0.419    19.5057    19.5103     98.515  87.698719      0.597    9.17976    9.16387 1.1809e+02   998.3462  0.000e+00
      0.422    19.5059    19.5106     98.448  87.639269      0.600    9.17971    9.16382 1.1601e+02   998.3461  0.000e+00
      0.425    19.5063    19.5110     98.447  87.639269      0.604    9.17964    9.16376 1.1907e+02   998.3460  0.000e+00
      0.427    19.5062    19.5109     98.447  87.639269      0.607    9.17966    9.16377 1.1609e+02   998.3461  0.000e+00
      0.431    19.5060    19.5107     98.447  87.639269      0.614    9.17969    9.16381 1.1271e+02   998.3461  0.000e+00
      0.431    19.5060    19.5107     98.514  87.698719      0.614    9.17969    9.16380 1.1991e+02   998.3462  0.000e+00
      0.435    19.5066    19.5113     98.446  87.639269      0.618    9.17959    9.16370 1.2073e+02   998.3460  0.000e+00
      0.442    19.5063    19.5110     98.514  87.698719      0.629    9.17964    9.16375 1.1025e+02   998.3461  0.000e+00
      0.453    19.5061    19.5108     98.514  87.698719      0.645    9.17967    9.16379 1.1266e+02   998.3462  0.000e+00
      0.457    19.5063    19.5110     98.447  87.639269      0.651    9.17964    9.16376 1.1473e+02   998.3462  0.000e+00
      0.464    19.5069    19.5115     98.446  87.639269      0.660    9.17954    9.16365 1.0671e+02   998.3461  0.000e+00
      0.460    19.5073    19.5120     98.511  87.698719      0.654    9.17945    9.16357 1.1095e+02   998.3460  0.000e+00
      0.453    19.5069    19.5115     98.512  87.698719      0.645    9.17954    9.16365 1.1975e+02   998.3461  0.000e+00
      0.438    19.5067    19.5114     98.513  87.698719      0.623    9.17957    9.16369 1.0445e+02   998.3461  0.000e+00
      0.418    19.5070    19.5117     98.445  87.639269      0.595    9.17951    9.16362 1.1119e+02   998.3459  0.000e+00
      0.406    19.5072    19.5119     98.512  87.698718      0.578    9.17947    9.16358 1.0595e+02   998.3458  0.000e+00
      0.418    19.5057    19.5103     98.515  87.698719      0.595    9.17976    9.16387 1.0450e+02   998.3462  0.000e+00
      0.437    19.5052    19.5099     98.449  87.639270      0.621    9.17984    9.16396 1.0879e+02   998.3463  0.000e+00
      0.465    19.5061    19.5108     98.447  87.639270      0.662    9.17967    9.16379 1.0154e+02   998.3463  0.000e+00
      0.505    19.5075    19.5122     98.511  87.698719      0.719    9.17942    9.16353 1.0002e+02   998.3462  0.000e+00
      0.532    19.5081    19.5128     98.510  87.698719      0.757    9.17930    9.16342 1.0495e+02   998.3462  0.000e+00
      0.555    19.5083    19.5130     98.442  87.639270      0.790    9.17927    9.16338 1.0241e+02   998.3462  0.000e+00
      0.578    19.5088    19.5135     98.441  87.639270      0.822    9.17919    9.16330 1.0581e+02   998.3462  0.000e+00
      0.591    19.5092    19.5139     98.507  87.698719      0.841    9.17910    9.16321 9.6604e+01   998.3462  0.000e+00
      0.605    19.5091    19.5137     98.507  87.698719      0.861    9.17913    9.16325 9.9087e+01   998.3463  0.000e+00
      0.640    19.5088    19.5135     98.508  87.698720      0.910    9.17919    9.16330 9.6141e+01   998.3465  0.000e+00
      0.692    19.5091    19.5137     98.507  87.698720      0.984    9.17913    9.16325 9.2834e+01   998.3467  0.000e+00
      0.731    19.5102    19.5148     98.505  87.698720      1.040    9.17893    9.16304 9.3691e+01   998.3467  0.000e+00
      0.745    19.5107    19.5154     98.437  87.639271      1.060    9.17883    9.16294 9.3937e+01   998.3466  0.000e+00
      0.749    19.5108    19.5155     98.437  87.639271      1.065    9.17882    9.16293 9.2207e+01   998.3466  0.000e+00
      0.754    19.5108    19.5155     98.504  87.698720      1.073    9.17882    9.16293 9.4184e+01   998.3466  0.000e+00
      0.755    19.5109    19.5156     98.437  87.639271      1.074    9.17880    9.16291 9.3711e+01   998.3466  0.000e+00
      0.753    19.5110    19.5157     98.436  87.639271      1.071    9.17878    9.16289 9.2976e+01   998.3466  0.000e+00
      0.757    19.5103    19.5150     98.505  87.698720      1.077    9.17890    9.16301 9.5931e+01   998.3467  0.000e+00
      0.767    19.5098    19.5145     98.506  87.698720      1.091    9.17900    9.16311 9.1563e+01   998.3469  0.000e+00
      0.775    19.5091    19.5138     98.441  87.639271      1.102    9.17912    9.16323 9.0074e+01   998.3470  0.000e+00
      0.805    19.5091    19.5137     98.507  87.698721      1.145    9.17913    9.16325 8.7395e+01   998.3472  0.000e+00
      0.841    19.5086    19.5133     98.508  87.698721      1.196    9.17922    9.16333 8.5336e+01   998.3475  0.000e+00
      0.859    19.5090    19.5136     98.508  87.698721      1.222    9.17915    9.16326 8.9133e+01   998.3475  0.000e+00
      0.874    19.5096    19.5143     98.506  87.698721      1.242    9.17903    9.16315 8.3016e+01   998.3474  0.000e+00
      0.914    19.5102    19.5149     98.505  87.698721      1.300    9.17892    9.16303 8.6634e+01   998.3475  0.000e+00
      0.965    19.5103    19.5150     98.438  87.639273      1.372    9.17890    9.16301 8.1273e+01   998.3477  0.000e+00
      1.026    19.5099    19.5146     98.506  87.698723      1.459    9.17898    9.16309 8.0989e+01   998.3480  0.000e+00
      1.090    19.5093    19.5140     98.507  87.698723      1.550    9.17908    9.16320 7.7863e+01   998.3484  0.000e+00
      1.155    19.5090    19.5136     98.508  87.698724      1.643    9.17915    9.16326 7.8805e+01   998.3488  0.000e+00
      1.206    19.5078    19.5125     98.444  87.639275      1.715    9.17937    9.16348 7.8719e+01   998.3493  0.000e+00
      1.239    19.5068    19.5114     98.513  87.698725      1.762    9.17956    9.16367 7.6562e+01   998.3496  0.000e+00
      1.279    19.5063    19.5110     98.514  87.698726      1.819    9.17964    9.16375 7.7269e+01   998.3499  0.000e+00
      1.338    19.5070    19.5117     98.512  87.698726      1.904    9.17950    9.16362 7.2615e+01   998.3500  0.000e+00
      1.392    19.5073    19.5120     98.511  87.698726      1.979    9.17945    9.16357 7.2885e+01   998.3502  0.000e+00
      1.422    19.5066    19.5113     98.513  87.698727      2.023    9.17959    9.16370 7.1621e+01   998.3505  0.000e+00
      1.461    19.5058    19.5104     98.515  87.698727      2.078    9.17974    9.16385 7.0301e+01   998.3508  0.000e+00
      1.525    19.5058    19.5105     98.448  87.639278      2.170    9.17973    9.16384 7.0102e+01   998.3511  0.000e+00
      1.582    19.5058    19.5105     98.515  87.698728      2.250    9.17972    9.16384 6.8976e+01   998.3514  0.000e+00
      1.618    19.5054    19.5101     98.449  87.639279      2.301    9.17981    9.16392 6.8241e+01   998.3516  0.000e+00
      1.658    19.5048    19.5095     98.517  87.698729      2.358    9.17991    9.16402 6.6925e+01   998.3519  0.000e+00
      1.717    19.5049    19.5096     98.517  87.698730      2.441    9.17989    9.16401 6.7277e+01   998.3522  0.000e+00
      1.777    19.5058    19.5104     98.515  87.698730      2.528    9.17974    9.16385 6.6531e+01   998.3523  0.000e+00
      1.829    19.5058    19.5104     98.448  87.639281      2.602    9.17974    9.16386 6.6940e+01   998.3525  0.000e+00
      1.872    19.5051    19.5098     98.516  87.698731      2.662    9.17986    9.16397 6.7750e+01   998.3528  0.000e+00
      1.915    19.5049    19.5096     98.450  87.639282      2.724    9.17989    9.16401 6.9995e+01   998.3530  0.000e+00
      1.958    19.5053    19.5100     98.516  87.698731      2.784    9.17982    9.16394 7.3703e+01   998.3532  0.000e+00
      1.994    19.5057    19.5103     98.448  87.639282      2.835    9.17976    9.16387 7.4269e+01   998.3532  0.000e+00
      2.027    19.5052    19.5099     98.516  87.698732      2.883    9.17984    9.16396 8.2654e+01   998.3535  0.000e+00
      2.070    19.5052    19.5099     98.516  87.698732      2.944    9.17984    9.16396 9.0786e+01   998.3537  0.000e+00
      2.130    19.5056    19.5103     98.515  87.698733      3.030    9.17977    9.16389 1.0217e+02   998.3539  0.000e+00
      2.196    19.5053    19.5100     98.516  87.698733      3.123    9.17982    9.16394 9.9565e+01   998.3542  0.000e+00
      2.262    19.5049    19.5096     98.517  87.698734      3.217    9.17989    9.16401 9.2570e+01   998.3546  0.000e+00
      2.331    19.5047    19.5093     98.517  87.698735      3.316    9.17994    9.16406 9.2045e+01   998.3550  0.000e+00
      2.391    19.5048    19.5094     98.450  87.639286      3.401    9.17993    9.16404 8.4039e+01   998.3552  0.000e+00
      2.433    19.5050    19.5097     98.516  87.698735      3.461    9.17988    9.16399 8.5317e+01   998.3554  0.000e+00
      2.477    19.5049    19.5096     98.450  87.639286      3.523    9.17989    9.16401 8.0759e+01   998.3556  0.000e+00
      2.546    19.5043    19.5090     98.451  87.639287      3.622    9.18001    9.16413 7.8891e+01   998.3560  0.000e+00
      2.601    19.5041    19.5088     98.452  87.639288      3.699    9.18004    9.16416 7.9619e+01   998.3563  0.000e+00
      2.640    19.5045    19.5092     98.451  87.639288      3.755    9.17998    9.16409 7.6629e+01   998.3564  0.000e+00
      2.706    19.5043    19.5090     98.518  87.698738      3.849    9.18001    9.16413 7.1059e+01   998.3567  0.000e+00
      2.793    19.5038    19.5085     98.519  87.698739      3.973    9.18009    9.16421 6.9522e+01   998.3572  0.000e+00
      2.852    19.5042    19.5089     98.451  87.639290      4.056    9.18003    9.16414 6.7632e+01   998.3574  0.000e+00
      2.878    19.5051    19.5098     98.449  87.639290      4.093    9.17986    9.16397 6.8705e+01   998.3573  0.000e+00
      2.930    19.5054    19.5101     98.516  87.698739      4.167    9.17981    9.16392 6.8002e+01   998.3575  0.000e+00
      3.002    19.5052    19.5099     98.449  87.639291      4.269    9.17984    9.16396 6.7676e+01   998.3579  0.000e+00
      3.055    19.5052    19.5099     98.449  87.639291      4.345    9.17984    9.16396 6.7691e+01   998.3581  0.000e+00
      3.090    19.5054    19.5101     98.516  87.698741      4.394    9.17981    9.16392 6.8390e+01   998.3582  0.000e+00
      3.122    19.5052    19.5099     98.449  87.639292      4.441    9.17984    9.16396 7.2045e+01   998.3584  0.000e+00
      3.187    19.5048    19.5094     98.517  87.698742      4.534    9.17993    9.16404 6.7277e+01   998.3588  0.000e+00
      3.243    19.5048    19.5095     98.450  87.639293      4.612    9.17991    9.16403 6.8856e+01   998.3590  0.000e+00
      3.268    19.5059    19.5106     98.514  87.698742      4.648    9.17971    9.16382 7.2219e+01   998.3589  0.000e+00
      3.273    19.5075    19.5122     98.511  87.698742      4.656    9.17942    9.16353 6.5764e+01   998.3586  0.000e+00
      3.290    19.5072    19.5119     98.445  87.639293      4.679    9.17947    9.16359 6.6270e+01   998.3587  0.000e+00
      3.326    19.5061    19.5108     98.514  87.698743      4.731    9.17967    9.16379 6.7513e+01   998.3592  0.000e+00
      3.358    19.5069    19.5115     98.512  87.698743      4.776    9.17954    9.16365 6.4893e+01   998.3592  0.000e+00
      3.383    19.5077    19.5124     98.511  87.698743      4.812    9.17939    9.16350 6.3879e+01   998.3591  0.000e+00
      3.419    19.5074    19.5121     98.511  87.698743      4.863    9.17944    9.16355 6.2524e+01   998.3593  0.000e+00
      3.474    19.5070    19.5117     98.445  87.639294      4.941    9.17951    9.16362 6.0413e+01   998.3596  0.000e+00
      3.523    19.5068    19.5114     98.513  87.698744      5.011    9.17956    9.16367 6.1560e+01   998.3599  0.000e+00
      3.582    19.5060    19.5107     98.514  87.698745      5.094    9.17969    9.16380 5.9651e+01   998.3603  0.000e+00
      3.634    19.5057    19.5103     98.548  87.728470      5.169    9.17976    9.16387 6.0070e+01   998.3606  0.000e+00
      3.690    19.5057    19.5103     98.515  87.698746      5.249    9.17976    9.16387 5.7979e+01   998.3609  0.000e+00
      3.737    19.5060    19.5107     98.514  87.698746      5.315    9.17969    9.16380 5.8681e+01   998.3610  0.000e+00
      3.808    19.5069    19.5116     98.512  87.698746      5.416    9.17952    9.16364 5.7461e+01   998.3612  0.000e+00
      3.877    19.5069    19.5115     98.512  87.698747      5.515    9.17954    9.16365 5.4048e+01   998.3615  0.000e+00
      3.915    19.5065    19.5112     98.513  87.698747      5.569    9.17961    9.16372 5.4942e+01   998.3617  0.000e+00
      3.921    19.5062    19.5109     98.514  87.698747      5.577    9.17966    9.16377 5.7840e+01   998.3618  0.000e+00
      3.922    19.5067    19.5114     98.513  87.698747      5.578    9.17957    9.16369 5.5485e+01   998.3617  0.000e+00
      3.920    19.5069    19.5115     98.446  87.639298      5.575    9.17954    9.16365 5.3506e+01   998.3617  0.000e+00
      3.920    19.5062    19.5109     98.447  87.639298      5.575    9.17966    9.16377 5.4237e+01   998.3618  0.000e+00
      3.920    19.5059    19.5106     98.514  87.698747      5.575    9.17971    9.16382 5.3133e+01   998.3619  0.000e+00
      3.924    19.5060    19.5107     98.514  87.698747      5.581    9.17969    9.16380 5.3238e+01   998.3619  0.000e+00
      3.924    19.5060    19.5107     98.514  87.698747      5.581    9.17969    9.16380 5.1836e+01   998.3619  0.000e+00
      3.922    19.5057    19.5103     98.515  87.698748      5.578    9.17976    9.16387 5.3040e+01   998.3619  0.000e+00
      3.917    19.5051    19.5098     98.449  87.639298      5.572    9.17986    9.16397 5.2337e+01   998.3620  0.000e+00
      3.915    19.5049    19.5096     98.517  87.698748      5.569    9.17989    9.16401 5.1938e+01   998.3620  0.000e+00
      3.916    19.5051    19.5098     98.516  87.698748      5.570    9.17986    9.16397 5.3647e+01   998.3620  0.000e+00
      3.915    19.5047    19.5093     98.450  87.639298      5.569    9.17994    9.16406 5.4166e+01   998.3621  0.000e+00
      3.921    19.5040    19.5087     98.452  87.639299      5.577    9.18006    9.16418 5.5050e+01   998.3622  0.000e+00
      3.926    19.5043    19.5090     98.451  87.639299      5.584    9.18001    9.16413 5.4427e+01   998.3622  0.000e+00
      3.936    19.5043    19.5090     98.451  87.639299      5.598    9.18001    9.16413 5.6304e+01   998.3622  0.000e+00
      3.972    19.5037    19.5084     98.519  87.698749      5.649    9.18011    9.16423 5.2797e+01   998.3625  0.000e+00
      4.025    19.5031    19.5078     98.454  87.639300      5.725    9.18023    9.16435 5.1700e+01   998.3629  0.000e+00
      4.073    19.5035    19.5082     98.453  87.639300      5.793    9.18016    9.16428 5.1115e+01   998.3630  0.000e+00
      4.115    19.5045    19.5092     98.451  87.639300      5.853    9.17998    9.16409 4.9791e+01   998.3630  0.000e+00
      4.164    19.5049    19.5096     98.550  87.728475      5.923    9.17989    9.16401 4.8799e+01   998.3632  0.000e+00
      4.213    19.5051    19.5098     98.449  87.639301      5.992    9.17986    9.16397 4.7785e+01   998.3633  0.000e+00
      4.273    19.5054    19.5101     98.516  87.698751      6.077    9.17981    9.16392 4.6041e+01   998.3636  0.000e+00
      4.338    19.5055    19.5102     98.449  87.639302      6.170    9.17979    9.16391 4.5025e+01   998.3638  0.000e+00
      4.403    19.5037    19.5084     98.452  87.639303      6.263    9.18011    9.16423 4.3211e+01   998.3645  0.000e+00
      4.471    19.5014    19.5060     98.525  87.698753      6.360    9.18055    9.16467 4.1406e+01   998.3653  0.000e+00
      4.522    19.5005    19.5052     98.526  87.698754      6.433    9.18070    9.16482 4.1073e+01   998.3657  0.000e+00
      4.569    19.5017    19.5064     98.457  87.639305      6.499    9.18048    9.16460 3.9939e+01   998.3656  0.000e+00
      4.640    19.5021    19.5068     98.523  87.698754      6.599    9.18041    9.16453 3.8087e+01   998.3659  0.000e+00
      4.696    19.5015    19.5062     98.524  87.698755      6.680    9.18051    9.16463 3.8146e+01   998.3662  0.000e+00
      4.734    19.5019    19.5066     98.457  87.639306      6.734    9.18045    9.16457 3.8121e+01   998.3663  0.000e+00
      4.763    19.5030    19.5077     98.454  87.639306      6.774    9.18025    9.16436 3.7190e+01   998.3662  0.000e+00
      4.820    19.5034    19.5081     98.520  87.698756      6.856    9.18018    9.16429 3.5903e+01   998.3664  0.000e+00
      4.877    19.5029    19.5076     98.521  87.698756      6.936    9.18026    9.16438 3.5489e+01   998.3668  0.000e+00
      4.917    19.5020    19.5067     98.456  87.639307      6.993    9.18043    9.16455 3.4623e+01   998.3671  0.000e+00
      4.949    19.5021    19.5068     98.456  87.639308      7.040    9.18042    9.16453 3.3674e+01   998.3672  0.000e+00
      5.009    19.5022    19.5069     98.456  87.639308      7.125    9.18040    9.16452 3.2730e+01   998.3675  0.000e+00
      5.074    19.5020    19.5067     98.523  87.698758      7.217    9.18043    9.16455 3.1535e+01   998.3679  0.000e+00
      5.138    19.5019    19.5066     98.457  87.639309      7.309    9.18045    9.16457 3.0604e+01   998.3681  0.000e+00
      5.192    19.5023    19.5070     98.456  87.639310      7.384    9.18038    9.16450 2.9688e+01   998.3683  0.000e+00
      5.249    19.5026    19.5072     98.455  87.639310      7.466    9.18033    9.16445 2.8811e+01   998.3685  0.000e+00
      5.297    19.5028    19.5075     98.521  87.698760      7.534    9.18028    9.16440 2.8541e+01   998.3687  0.000e+00
      5.348    19.5025    19.5071     98.455  87.639311      7.607    9.18035    9.16446 2.7851e+01   998.3690  0.000e+00
      5.388    19.5025    19.5071     98.455  87.639311      7.664    9.18035    9.16446 2.7141e+01   998.3691  0.000e+00
      5.437    19.5029    19.5076     98.454  87.639311      7.734    9.18026    9.16438 2.6629e+01   998.3693  0.000e+00
      5.485    19.5027    19.5074     98.455  87.639312      7.802    9.18030    9.16441 2.6030e+01   998.3695  0.000e+00
      5.535    19.5026    19.5072     98.455  87.639312      7.873    9.18033    9.16445 2.5245e+01   998.3698  0.000e+00
      5.594    19.5026    19.5072     98.455  87.639313      7.956    9.18033    9.16445 2.4170e+01   998.3701  0.000e+00
      5.657    19.5026    19.5072     98.522  87.698763      8.046    9.18033    9.16445 2.3436e+01   998.3704  0.000e+00
      5.703    19.5013    19.5060     98.525  87.698763      8.112    9.18056    9.16468 2.2799e+01   998.3708  0.000e+00
      5.741    19.5004    19.5050     98.460  87.639315      8.166    9.18073    9.16485 2.2379e+01   998.3712  0.000e+00
      5.787    19.4986    19.5033     98.464  87.639316      8.231    9.18105    9.16517 2.1809e+01   998.3717  0.000e+00
      5.834    19.4985    19.5032     98.464  87.639316      8.298    9.18107    9.16519 2.1197e+01   998.3719  0.000e+00
      5.877    19.4964    19.5011     98.469  87.639317      8.359    9.18146    9.16558 2.0843e+01   998.3726  0.000e+00
      5.920    19.4886    19.4933     98.419  87.579870      8.420    9.18289    9.16702 2.0423e+01   998.3743  0.000e+00
      5.962    19.4805    19.4852     98.370  87.520424      8.480    9.18439    9.16852 1.9955e+01   998.3761  0.000e+00
      6.018    19.4530    19.4577     97.729  86.896227      8.560    9.18947    9.17362 1.9477e+01   998.3817  0.000e+00
      6.079    19.3418    19.3465     97.606  86.569303      8.647    9.20999    9.19423 1.8960e+01   998.4041  0.000e+00
      6.127    19.2092    19.2139     97.831  86.509894      8.715    9.23456    9.21890 1.8741e+01   998.4308  0.000e+00
      6.156    19.1158    19.1204     98.106  86.569367      8.756    9.25195    9.23635 1.8667e+01   998.4495  0.000e+00
      6.179    19.0599    19.0644     98.163  86.509937      8.789    9.26239    9.24684 1.8557e+01   998.4606  0.000e+00
      6.228    19.0263    19.0309     98.170  86.450500      8.858    9.26865    9.25313 1.8148e+01   998.4674  0.000e+00
      6.289    19.0055    19.0100     98.149  86.391061      8.945    9.27256    9.25705 1.7837e+01   998.4717  0.000e+00
      6.355    18.9892    18.9937     98.017  86.242452      9.039    9.27561    9.26011 1.7482e+01   998.4752  0.000e+00
      6.410    18.9391    18.9437     97.621  85.796632      9.116    9.28501    9.26954 1.7044e+01   998.4851  0.000e+00
      6.433    18.8222    18.8267     97.543  85.499447      9.150    9.30700    9.29162 1.7148e+01   998.5079  0.000e+00
      6.454    18.6860    18.6905     98.051  85.677815      9.180    9.33272    9.31744 1.6701e+01   998.5345  0.000e+00
      6.507    18.6354    18.6399     97.449  85.053680      9.256    9.34232    9.32709 1.6197e+01   998.5442  0.000e+00
      6.568    18.5263    18.5308     96.738  84.221542      9.342    9.36308    9.34792 1.5729e+01   998.5651  0.000e+00
      6.621    18.3154    18.3198     96.112  83.270591      9.418    9.40344    9.38844 1.5291e+01   998.6051  0.000e+00
      6.688    17.9981    18.0024     96.510  83.003214      9.512    9.46470    9.44994 1.4717e+01   998.6647  0.000e+00
      6.744    17.7221    17.7263     96.299  82.290069      9.592    9.51860    9.50403 1.4370e+01   998.7155  0.000e+00
      6.799    17.4325    17.4367     96.151  81.606668      9.671    9.57574    9.56138 1.3873e+01   998.7679  0.000e+00
      6.868    17.0905    17.0946     95.803  80.655870      9.768    9.64404    9.62992 1.3161e+01   998.8286  0.000e+00
      6.941    16.6865    16.6905     95.948  80.002265      9.872    9.72584    9.71200 1.2675e+01   998.8987  0.000e+00
      7.005    16.3038    16.3077     95.938  79.259536      9.963    9.80449    9.79090 1.2300e+01   998.9633  0.000e+00
      7.069    15.9457    15.9495     96.160  78.754520     10.054    9.87911    9.86575 1.1697e+01   999.0223  0.000e+00
      7.147    15.6267    15.6305     95.965  77.982107     10.166    9.94646    9.93331 1.1118e+01   999.0737  0.000e+00
      7.218    15.3248    15.3285     95.800  77.269136     10.266   10.01097    9.99800 1.0762e+01   999.1211  0.000e+00
      7.282    15.0258    15.0294     95.811  76.704734     10.357   10.07561   10.06281 1.0240e+01   999.1672  0.000e+00
      7.343    14.7395    14.7430     95.604  75.991802     10.444   10.13820   10.12557 9.7507e+00   999.2102  0.000e+00
      7.399    14.4850    14.4884     95.581  75.486836     10.524   10.19443   10.18194 9.4835e+00   999.2476  0.000e+00
      7.432    14.2475    14.2510     95.667  75.100704     10.570   10.24739   10.23502 9.3599e+00   999.2818  0.000e+00
      7.460    14.0535    14.0568     96.067  75.041338     10.611   10.29103   10.27877 9.0103e+00   999.3094  0.000e+00
      7.509    13.9424    13.9457     95.616  74.476948     10.680   10.31618   10.30397 8.6473e+00   999.3249  0.000e+00
      7.579    13.8133    13.8166     94.710  73.526416     10.781   10.34556   10.33342 8.2554e+00   999.3427  0.000e+00
      7.649    13.5943    13.5975     94.747  73.140315     10.879   10.39571   10.38366 7.9090e+00   999.3726  0.000e+00
      7.702    13.3546    13.3578     94.759  72.694820     10.955   10.45107   10.43914 7.7362e+00   999.4047  0.000e+00
      7.736    13.1492    13.1523     95.036  72.516650     11.003   10.49894   10.48710 7.5970e+00   999.4316  0.000e+00
      7.775    12.9992    13.0023     94.981  72.189955     11.059   10.53414   10.52236 7.3662e+00   999.4509  0.000e+00
      7.824    12.8783    12.8814     94.579  71.655346     11.128   10.56270   10.55096 7.1582e+00   999.4662  0.000e+00
      7.873    12.7569    12.7600     94.489  71.358359     11.198   10.59148   10.57979 6.9559e+00   999.4815  0.000e+00
      7.926    12.6563    12.6593     94.584  71.239578     11.273   10.61545   10.60379 6.6845e+00   999.4942  0.000e+00
      7.991    12.5674    12.5704     94.215  70.794086     11.366   10.63671   10.62508 6.4348e+00   999.5052  0.000e+00
      8.049    12.4527    12.4556     94.900  71.091120     11.448   10.66424   10.65266 6.2339e+00   999.5195  0.000e+00
      8.096    12.3105    12.3135     95.421  71.209958     11.515   10.69853   10.68700 6.0486e+00   999.5368  0.000e+00
      8.150    12.1862    12.1891     95.581  71.091183     11.592   10.72868   10.71719 5.7480e+00   999.5517  0.000e+00
      8.211    12.0903    12.0932     95.908  71.150607     11.678   10.75205   10.74059 5.5406e+00   999.5632  0.000e+00
      8.276    12.0000    12.0028     96.584  71.477343     11.771   10.77412   10.76269 5.2481e+00   999.5741  0.000e+00
      8.341    11.9099    11.9128     97.262  71.804084     11.864   10.79621   10.78480 4.9428e+00   999.5849  0.000e+00
      8.408    11.8276    11.8304     98.528  72.576372     11.960   10.81646   10.80508 4.7013e+00   999.5949  0.000e+00
      8.456    11.7418    11.7446     99.000  72.754613     12.028   10.83766   10.82630 4.5655e+00   999.6049  0.000e+00
      8.500    11.6613    11.6641     99.380  72.873446     12.089   10.85760   10.84626 4.3777e+00   999.6141  0.000e+00
      8.554    11.5965    11.5993     99.678  72.962573     12.167   10.87371   10.86239 4.1005e+00   999.6216  0.000e+00
      8.614    11.5426    11.5453    100.312  73.319035     12.252   10.88715   10.87584 3.9053e+00   999.6279  0.000e+00
      8.658    11.4910    11.4938    100.576  73.408161     12.315   10.90002   10.88873 3.7991e+00   999.6338  0.000e+00
      8.703    11.4439    11.4466    100.869  73.526990     12.378   10.91181   10.90053 3.6645e+00   999.6392  0.000e+00
      8.759    11.4040    11.4067    101.225  73.705229     12.459   10.92182   10.91054 3.4302e+00   999.6438  0.000e+00
      8.822    11.3605    11.3633    101.264  73.645830     12.548   10.93273   10.92147 3.2569e+00   999.6488  0.000e+00
      8.890    11.3071    11.3098    101.249  73.527024     12.644   10.94618   10.93492 3.0116e+00   999.6547  0.000e+00
      8.942    11.2487    11.2514    101.044  73.259699     12.718   10.96092   10.94968 2.9834e+00   999.6610  0.000e+00
      8.989    11.1831    11.1858    101.145  73.200306     12.785   10.97753   10.96630 2.8352e+00   999.6681  0.000e+00
      9.042    11.1232    11.1259    100.861  72.873577     12.860   10.99273   10.98151 2.6772e+00   999.6744  0.000e+00
      9.096    11.0664    11.0690    100.484  72.487447     12.938   11.00718   10.99598 2.5420e+00   999.6804  0.000e+00
      9.146    11.0078    11.0105    100.318  72.249837     13.009   11.02211   11.01092 2.4236e+00   999.6865  0.000e+00
      9.198    10.9567    10.9594    100.213  72.071633     13.083   11.03517   11.02398 2.3108e+00   999.6919  0.000e+00
      9.249    10.9124    10.9150    100.295  72.041942     13.156   11.04651   11.03533 2.2133e+00   999.6966  0.000e+00
      9.298    10.8771    10.8797    100.228  71.923141     13.225   11.05557   11.04440 2.1176e+00   999.7003  0.000e+00
      9.343    10.8479    10.8505     99.978  71.685531     13.288   11.06307   11.05190 2.0133e+00   999.7034  0.000e+00
      9.380    10.8127    10.8153     99.952  71.596433     13.341   11.07212   11.06096 1.9624e+00   999.7070  0.000e+00
      9.404    10.7730    10.7756    100.063  71.596443     13.375   11.08233   11.07117 1.9389e+00   999.7111  0.000e+00
      9.426    10.7385    10.7411    100.243  71.655855     13.407   11.09122   11.08007 1.8759e+00   999.7146  0.000e+00
      9.476    10.7232    10.7258    100.286  71.655858     13.478   11.09517   11.08402 1.7564e+00   999.7164  0.000e+00
      9.545    10.7009    10.7035    100.182  71.537057     13.576   11.10093   11.08978 1.6202e+00   999.7188  0.000e+00
      9.612    10.6396    10.6422    100.271  71.477668     13.672   11.11679   11.10565 1.5074e+00   999.7251  0.000e+00
      9.673    10.5742    10.5768    100.372  71.418280     13.758   11.13375   11.12262 1.4555e+00   999.7318  0.000e+00
      9.731    10.5172    10.5198    100.450  71.358891     13.840   11.14856   11.13744 1.3580e+00   999.7375  0.000e+00
      9.776    10.4706    10.4731    100.582  71.358902     13.905   11.16071   11.14960 1.2779e+00   999.7422  0.000e+00
      9.813    10.4334    10.4359    100.771  71.418314     13.957   11.17042   11.15931 1.2302e+00   999.7459  0.000e+00
      9.864    10.4051    10.4076    100.935  71.477724     14.030   11.17780   11.16669 1.1385e+00   999.7488  0.000e+00
      9.933    10.3838    10.3863    101.248  71.655941     14.127   11.18339   11.17228 1.0796e+00   999.7513  0.000e+00
      9.998    10.3604    10.3629    101.903  72.071779     14.220   11.18949   11.17839 1.0148e+00   999.7540  0.000e+00
     10.050    10.3378    10.3403    102.473  72.428218     14.294   11.19539   11.18429 9.2773e-01   999.7565  0.000e+00
     10.116    10.3193    10.3218    102.905  72.695553     14.389   11.20023   11.18913 8.7376e-01   999.7587  0.000e+00
     10.177    10.3040    10.3065    103.202  72.873779     14.475   11.20425   11.19315 8.3709e-01   999.7605  0.000e+00
     10.228    10.2896    10.2921    103.244  72.873783     14.548   11.20802   11.19692 7.5845e-01   999.7621  0.000e+00
     10.293    10.2775    10.2799    103.364  72.933194     14.640   11.21121   11.20011 7.4269e-01   999.7636  0.000e+00
     10.366    10.2676    10.2700    103.519  73.022308     14.744   11.21381   11.20271 6.9521e-01   999.7649  0.000e+00
     10.421    10.2556    10.2580    103.723  73.141128     14.823   11.21696   11.20586 6.8106e-01   999.7663  0.000e+00
     10.467    10.2381    10.2406    103.943  73.259950     14.888   11.22154   11.21045 6.0598e-01   999.7682  0.000e+00
     10.529    10.2214    10.2238    103.992  73.259954     14.976   11.22596   11.21486 6.3683e-01   999.7700  0.000e+00
     10.592    10.1974    10.1999    104.232  73.378778     15.065   11.23227   11.22117 5.4403e-01   999.7726  0.000e+00
     10.641    10.1717    10.1741    104.308  73.378784     15.135   11.23906   11.22797 5.3647e-01   999.7752  0.000e+00
     10.691    10.1527    10.1551    104.407  73.408494     15.206   11.24408   11.23299 4.5790e-01   999.7772  0.000e+00
     10.767    10.1382    10.1407    104.619  73.527317     15.314   11.24789   11.23680 4.3211e-01   999.7789  0.000e+00
     10.831    10.1256    10.1280    104.656  73.527320     15.405   11.25123   11.24014 4.0325e-01   999.7803  0.000e+00
     10.889    10.1132    10.1156    104.778  73.586733     15.487   11.25451   11.24342 3.8989e-01   999.7818  0.000e+00
     10.959    10.1013    10.1038    104.898  73.646146     15.588   11.25765   11.24656 3.5011e-01   999.7832  0.000e+00
     11.030    10.0903    10.0927    105.016  73.705559     15.688   11.26057   11.24949 3.2744e-01   999.7846  0.000e+00
     11.091    10.0791    10.0816    105.134  73.764972     15.775   11.26352   11.25243 2.9416e-01   999.7859  0.000e+00
     11.148    10.0685    10.0709    105.250  73.824386     15.857   11.26634   11.25525 2.7373e-01   999.7871  0.000e+00
     11.224    10.0596    10.0620    105.277  73.824388     15.965   11.26870   11.25762 2.6110e-01   999.7883  0.000e+00
     11.280    10.0510    10.0534    105.345  73.854096     16.043   11.27097   11.25989 2.5792e-01   999.7893  0.000e+00
     11.330    10.0421    10.0445    105.372  73.854099     16.115   11.27335   11.26227 2.2939e-01   999.7904  0.000e+00
     11.393    10.0342    10.0366    105.353  73.824396     16.204   11.27545   11.26437 1.8529e-01   999.7914  0.000e+00
     11.455    10.0263    10.0287    105.504  73.913514     16.292   11.27754   11.26646 1.9256e-01   999.7924  0.000e+00
     11.510    10.0178    10.0202    105.700  74.032338     16.371   11.27979   11.26871 2.0603e-01   999.7935  0.000e+00
     11.560    10.0077    10.0101    105.730  74.032341     16.442   11.28246   11.27138 1.8749e-01   999.7946  0.000e+00
     11.613     9.9997    10.0021    105.839  74.091754     16.518   11.28460   11.27352 1.8017e-01   999.7956  0.000e+00
     11.661     9.9931     9.9955    105.944  74.151167     16.586   11.28634   11.27526 1.5986e-01   999.7965  0.000e+00
     11.708     9.9869     9.9893    106.132  74.269992     16.652   11.28799   11.27691 1.6207e-01   999.7973  0.000e+00
     11.757     9.9816     9.9839    106.276  74.359112     16.722   11.28941   11.27833 1.3834e-01   999.7981  0.000e+00
     11.821     9.9778     9.9802    106.287  74.359113     16.813   11.29040   11.27932 1.4957e-01   999.7987  0.000e+00
     11.872     9.9741     9.9765    106.171  74.269997     16.886   11.29140   11.28032 1.1277e-01   999.7992  0.000e+00
     11.926     9.9697     9.9721    106.015  74.151175     16.963   11.29258   11.28150 1.4386e-01   999.7998  0.000e+00
     11.989     9.9662     9.9686    106.025  74.151176     17.053   11.29351   11.28243 1.3475e-01   999.8004  0.000e+00
     12.055     9.9635     9.9659    106.203  74.270000     17.147   11.29421   11.28313 1.1484e-01   999.8010  0.000e+00
     12.110     9.9607     9.9630    106.127  74.210590     17.224   11.29498   11.28390 1.2279e-01   999.8015  0.000e+00
     12.167     9.9577     9.9600    106.136  74.210591     17.306   11.29578   11.28470 1.1267e-01   999.8020  0.000e+00
     12.248     9.9550     9.9574    106.144  74.210592     17.420   11.29647   11.28539 1.1272e-01   999.8026  0.000e+00
     12.301     9.9526     9.9550    106.067  74.151182     17.496   11.29712   11.28604 1.1466e-01   999.8031  0.000e+00
     12.339     9.9502     9.9526    106.159  74.210594     17.550   11.29777   11.28669 1.1270e-01   999.8035  0.000e+00
     12.387     9.9482     9.9506    106.250  74.270006     17.618   11.29828   11.28721 1.1295e-01   999.8039  0.000e+00
     12.443     9.9470     9.9494    106.296  74.299713     17.698   11.29862   11.28754 1.1292e-01   999.8043  0.000e+00
     12.481     9.9454     9.9478    106.258  74.270008     17.752   11.29903   11.28795 1.1258e-01   999.8046  0.000e+00
     12.526     9.9442     9.9466    106.305  74.299714     17.816   11.29935   11.28827 1.1267e-01   999.8049  0.000e+00
     12.599     9.9432     9.9456    106.478  74.418539     17.919   11.29963   11.28855 1.1282e-01   999.8054  0.000e+00
     12.657     9.9416     9.9440    106.653  74.537365     18.003   11.30003   11.28895 1.1272e-01   999.8059  0.000e+00
     12.706     9.9388     9.9412    106.661  74.537366     18.072   11.30078   11.28970 1.1290e-01   999.8064  0.000e+00
     12.775     9.9362     9.9386    106.754  74.596779     18.170   11.30147   11.29039 1.1265e-01   999.8070  0.000e+00
     12.850     9.9335     9.9359    106.762  74.596781     18.276   11.30220   11.29112 1.1275e-01   999.8076  0.000e+00
     12.896     9.9304     9.9328    106.772  74.596782     18.343   11.30302   11.29194 1.1290e-01   999.8081  0.000e+00
     12.945     9.9278     9.9302    106.780  74.596783     18.412   11.30371   11.29263 1.1287e-01   999.8085  0.000e+00
     13.018     9.9259     9.9283    106.956  74.715609     18.516   11.30422   11.29314 1.1272e-01   999.8091  0.000e+00
     13.077     9.9244     9.9267    106.960  74.715610     18.599   11.30463   11.29355 1.1300e-01   999.8095  0.000e+00
     13.112     9.9226     9.9249    106.966  74.715611     18.650   11.30511   11.29403 1.1280e-01   999.8098  0.000e+00
     13.160     9.9213     9.9237    106.970  74.715612     18.718   11.30545   11.29437 1.1267e-01   999.8102  0.000e+00
     13.216     9.9208     9.9232    107.014  74.745319     18.797   11.30557   11.29449 1.1275e-01   999.8105  0.000e+00
     13.247     9.9203     9.9227    107.101  74.804732     18.842   11.30571   11.29463 1.1282e-01   999.8107  0.000e+00
     13.274     9.9196     9.9220    107.017  74.745319     18.881   11.30589   11.29481 1.1290e-01   999.8109  0.000e+00
     13.331     9.9205     9.9229    107.015  74.745320     18.961   11.30566   11.29458 1.1287e-01   999.8110  0.000e+00
     13.391     9.9202     9.9226    107.101  74.804733     19.046   11.30573   11.29465 1.1275e-01   999.8114  0.000e+00
     13.430     9.9186     9.9209    107.191  74.864147     19.101   11.30617   11.29509 1.1305e-01   999.8117  0.000e+00
     13.473     9.9158     9.9182    107.199  74.864148     19.163   11.30690   11.29582 1.1277e-01   999.8122  0.000e+00
     13.521     9.9153     9.9177    107.201  74.864149     19.231   11.30704   11.29596 1.1300e-01   999.8125  0.000e+00
     13.574     9.9160     9.9183    107.284  74.923563     19.307   11.30686   11.29578 1.1280e-01   999.8127  0.000e+00
     13.613     9.9143     9.9167    107.289  74.923563     19.363   11.30730   11.29623 1.1272e-01   999.8130  0.000e+00
     13.665     9.9124     9.9147    107.210  74.864151     19.437   11.30782   11.29675 1.1300e-01   999.8134  0.000e+00
     13.725     9.9118     9.9141    107.382  74.982979     19.522   11.30798   11.29690 1.1272e-01   999.8138  0.000e+00
     13.783     9.9114     9.9138    107.468  75.042393     19.604   11.30806   11.29699 1.1287e-01   999.8141  0.000e+00
     13.825     9.9100     9.9124    107.387  74.982980     19.664   11.30844   11.29736 1.1267e-01   999.8144  0.000e+00
     13.873     9.9084     9.9108    107.477  75.042394     19.732   11.30886   11.29779 1.1287e-01   999.8148  0.000e+00
     13.934     9.9084     9.9108    107.307  74.923567     19.818   11.30887   11.29779 1.1267e-01   999.8150  0.000e+00
     13.991     9.9089     9.9113    107.008  74.715620     19.900   11.30875   11.29768 1.1267e-01   999.8151  0.000e+00
     14.029     9.9070     9.9094    106.928  74.656208     19.954   11.30925   11.29818 1.1270e-01   999.8155  0.000e+00
     14.061     9.9050     9.9073    106.935  74.656209     19.999   11.30981   11.29873 1.1282e-01   999.8158  0.000e+00
     14.095     9.9051     9.9075    107.020  74.715622     20.047   11.30977   11.29869 1.1290e-01   999.8160  0.000e+00
     14.143     9.9072     9.9096    107.056  74.745328     20.117   11.30920   11.29812 1.1324e-01   999.8160  0.000e+00
     14.199     9.9082     9.9106    107.052  74.745329     20.196   11.30893   11.29785 1.1263e-01   999.8162  0.000e+00
     14.255     9.9064     9.9088    107.228  74.864156     20.276   11.30941   11.29833 1.1275e-01   999.8167  0.000e+00
     14.316     9.9037     9.9061    107.066  74.745331     20.362   11.31014   11.29906 1.1277e-01   999.8171  0.000e+00
     14.376     9.9030     9.9053    107.154  74.804744     20.447   11.31033   11.29926 1.1287e-01   999.8175  0.000e+00
     14.431     9.9022     9.9046    107.156  74.804745     20.526   11.31053   11.29945 1.1277e-01   999.8178  0.000e+00
     14.479     9.9011     9.9035    107.159  74.804746     20.594   11.31083   11.29975 1.1280e-01   999.8182  0.000e+00
     14.519     9.9010     9.9034    107.160  74.804746     20.651   11.31085   11.29977 1.1314e-01   999.8184  0.000e+00
     14.565     9.9012     9.9036    107.159  74.804746     20.716   11.31080   11.29972 1.1277e-01   999.8186  0.000e+00
     14.604     9.9008     9.9032    107.245  74.864160     20.772   11.31090   11.29982 1.1282e-01   999.8188  0.000e+00
     14.638     9.8993     9.9017    107.250  74.864161     20.820   11.31131   11.30023 1.1287e-01   999.8191  0.000e+00
     14.680     9.8978     9.9002    107.255  74.864161     20.880   11.31170   11.30062 1.1272e-01   999.8194  0.000e+00
     14.729     9.8987     9.9011    107.422  74.982989     20.950   11.31146   11.30039 1.1300e-01   999.8196  0.000e+00
     14.768     9.8971     9.8995    107.512  75.042403     21.005   11.31189   11.30081 1.1295e-01   999.8200  0.000e+00
     14.801     9.8945     9.8969    107.690  75.161233     21.052   11.31258   11.30150 1.1277e-01   999.8204  0.000e+00
     14.843     9.8928     9.8952    107.610  75.101819     21.112   11.31302   11.30195 1.1275e-01   999.8208  0.000e+00
     14.904     9.8930     9.8954    107.738  75.190941     21.198   11.31297   11.30189 1.1272e-01   999.8211  0.000e+00
     14.970     9.8914     9.8938    107.742  75.190942     21.293   11.31339   11.30232 1.1275e-01   999.8215  0.000e+00
     15.025     9.8879     9.8903    107.924  75.309773     21.370   11.31433   11.30325 1.1285e-01   999.8221  0.000e+00
     15.078     9.8859     9.8882    107.930  75.309773     21.446   11.31488   11.30381 1.1290e-01   999.8226  0.000e+00
     15.132     9.8851     9.8874    108.018  75.369189     21.523   11.31509   11.30402 1.1290e-01   999.8229  0.000e+00
     15.191     9.8840     9.8864    108.106  75.428605     21.606   11.31537   11.30430 1.1282e-01   999.8233  0.000e+00
     15.235     9.8825     9.8848    108.111  75.428605     21.670   11.31578   11.30471 1.1290e-01   999.8237  0.000e+00
     15.280     9.8817     9.8841    108.113  75.428606     21.733   11.31598   11.30490 1.1282e-01   999.8239  0.000e+00
     15.330     9.8824     9.8848    108.196  75.488021     21.804   11.31580   11.30472 1.1285e-01   999.8241  0.000e+00
     15.385     9.8827     9.8851    108.280  75.547437     21.883   11.31571   11.30463 1.1297e-01   999.8244  0.000e+00
     15.423     9.8811     9.8834    108.286  75.547438     21.937   11.31615   11.30508 1.1277e-01   999.8247  0.000e+00
     15.454     9.8795     9.8818    108.376  75.606854     21.980   11.31657   11.30550 1.1285e-01   999.8250  0.000e+00
     15.478     9.8801     9.8824    108.289  75.547439     22.014   11.31642   11.30534 1.1309e-01   999.8251  0.000e+00
     15.507     9.8808     9.8832    108.372  75.606854     22.056   11.31622   11.30514 1.1282e-01   999.8252  0.000e+00
     15.544     9.8819     9.8842    108.411  75.636562     22.109   11.31593   11.30486 1.1285e-01   999.8253  0.000e+00
     15.611     9.8816     9.8840    108.412  75.636563     22.204   11.31600   11.30493 1.1305e-01   999.8256  0.000e+00
     15.688     9.8802     9.8826    108.501  75.695979     22.314   11.31637   11.30530 1.1305e-01   999.8261  0.000e+00
     15.759     9.8785     9.8809    108.592  75.755396     22.415   11.31682   11.30574 1.1287e-01   999.8266  0.000e+00
     15.801     9.8767     9.8791    108.682  75.814813     22.475   11.31729   11.30622 1.1282e-01   999.8270  0.000e+00
     15.840     9.8762     9.8786    108.854  75.933647     22.530   11.31743   11.30636 1.1272e-01   999.8273  0.000e+00
     15.887     9.8767     9.8790    110.769  77.270567     22.597   11.31724   11.30617 1.1287e-01   999.8282  0.000e+00
     15.932     9.8780     9.8804    172.414 120.277507     22.660   11.31483   11.30377 1.1258e-01   999.8507  0.000e+00
     15.978     9.8811     9.8835    211.388 147.479144     22.727   11.31268   11.30162 1.1295e-01   999.8650  0.000e+00
     16.016     9.8857     9.8880    225.977 157.677988     22.781   11.31097   11.29992 1.1258e-01   999.8702  0.000e+00
     16.021     9.8846     9.8870    228.464 159.408126     22.787   11.31117   11.30012 1.1272e-01   999.8713  0.000e+00
     16.034     9.8825     9.8849    231.812 161.735095     22.805   11.31161   11.30056 1.1300e-01   999.8728  0.000e+00
     16.059     9.8808     9.8832    234.561 163.644603     22.841   11.31198   11.30093 1.1285e-01   999.8741  0.000e+00
